#Wave		#Intensity
2018.222656	2095.528076
2016.693359	2118.412109
2015.164063	2016.651489
2013.632813	2106.099121
2012.103516	2105.663574
2010.572266	2030.099854
2009.041016	2032.945801
2007.509766	2068.441650
2005.978516	2082.703613
2004.447266	1999.047241
2002.914063	2023.106812
2001.380859	2060.205811
1999.849609	2020.638916
1998.316406	2114.791260
1996.781250	2034.474609
1995.248047	2024.274414
1993.714844	2082.518066
1992.179688	2031.582520
1990.644531	2109.346191
1989.109375	2082.853516
1987.574219	2100.332275
1986.039063	2103.153076
1984.501953	2016.460571
1982.964844	2125.062256
1981.429688	2119.741699
1979.892578	2075.387939
1978.353516	2096.097900
1976.816406	2046.889404
1975.279297	2049.716309
1973.740234	2050.916748
1972.201172	2069.989502
1970.662109	2106.923096
1969.123047	2078.876465
1967.583984	2084.940674
1966.042969	2042.298828
1964.503906	2030.513672
1962.962891	2093.381104
1961.421875	2101.059326
1959.880859	2071.425781
1958.339844	2074.239746
1956.796875	2039.759521
1955.255859	2087.969238
1953.712891	2111.847656
1952.169922	2044.972290
1950.626953	2067.229248
1949.083984	2003.630127
1947.539063	2061.513184
1945.996094	2064.323730
1944.451172	2018.570435
1942.906250	2014.914673
1941.361328	2077.601074
1939.816406	2098.200439
1938.269531	2076.738525
1936.724609	2074.690430
1935.177734	2067.792725
1933.630859	2072.212402
1932.083984	2032.996704
1930.537109	2123.054688
1928.990234	2056.383057
1927.441406	1986.508667
1925.892578	2055.528564
1924.345703	2082.545898
1922.794922	2048.218262
1921.246094	2109.113525
1919.697266	2076.407715
1918.146484	2063.071777
1916.597656	2106.185791
1915.046875	2033.191406
1913.496094	2048.888916
1911.945313	2088.755127
1910.392578	2043.202759
1908.841797	2094.330566
1907.289063	2066.513184
1905.736328	2014.552002
1904.183594	2067.263428
1902.630859	2049.126709
1901.078125	2064.793945
1899.523438	2070.800049
1897.968750	2088.064697
1896.416016	2050.637939
1894.861328	2014.834961
1893.304688	2073.899414
1891.750000	2134.546387
1890.193359	2034.467651
1888.638672	2032.437256
1887.082031	2041.651855
1885.525391	2044.438599
1883.968750	2042.406982
1882.410156	2046.797363
1880.853516	2031.925903
1879.294922	2082.851563
1877.736328	2059.956787
1876.177734	2040.279541
1874.619141	2054.287109
1873.060547	2065.082031
1871.500000	2123.962158
1869.941406	2036.975830
1868.380859	2006.106812
1866.820313	2068.166016
1865.259766	2029.294800
1863.697266	2068.904297
1862.136719	2041.255981
1860.574219	1996.011719
1859.011719	2035.603149
1857.449219	2054.377930
1855.886719	2053.949219
1854.324219	2112.695068
1852.759766	2049.893555
1851.197266	2057.458740
1849.632813	2063.422363
1848.068359	2051.805664
1846.503906	2064.158203
1844.937500	2090.881104
1843.373047	2098.429199
1841.806641	2067.654541
1840.240234	2022.525635
1838.673828	2090.729980
1837.107422	2031.254028
1835.541016	2030.829468
1833.972656	2083.039063
1832.404297	2047.521362
1830.837891	2034.338623
1829.269531	2033.913086
1827.699219	2044.643188
1826.130859	2085.641357
1824.560547	2027.857910
1822.992188	2056.101074
1821.421875	2063.632324
1819.851563	2023.401123
1818.281250	2070.726807
1816.708984	2165.771729
1815.138672	2122.362061
1813.566406	2136.233398
1811.994141	2070.583252
1810.421875	2148.058350
1808.849609	2098.329590
1807.277344	2075.639648
1805.703125	2076.793701
1804.128906	2070.003906
1802.554688	2080.688232
1800.980469	2051.668457
1799.406250	2059.176514
1797.832031	2115.888184
1796.255859	2074.182861
1794.679688	2170.533447
1793.103516	2066.967773
1791.527344	2134.731445
1789.951172	2102.570557
1788.375000	2176.639160
1786.796875	2079.498535
1785.218750	2106.001221
1783.642578	2172.100342
1782.062500	2135.212891
1780.484375	2161.686523
1778.906250	2161.232666
1777.326172	2105.374268
1775.746094	2093.853516
1774.166016	2126.642334
1772.585938	2126.195557
1771.005859	2081.462402
1769.425781	2100.000977
1767.843750	2126.436523
1766.261719	2076.989014
1764.679688	2108.158936
1763.097656	2128.255859
1761.515625	2140.445557
1759.931641	2043.656128
1758.349609	2122.176270
1756.765625	2135.937988
1755.181641	2062.885010
1753.597656	2120.837158
1752.011719	2150.366699
1750.427734	2108.903076
1748.841797	2097.420166
1747.255859	2052.831787
1745.669922	2094.960693
1744.083984	2141.800049
1742.498047	2147.651611
1740.910156	2147.199219
1739.324219	2146.746826
1737.736328	2169.914795
1736.148438	2193.072998
1734.560547	2154.834229
1732.970703	2207.885498
1731.382813	2290.807861
1729.792969	2235.269043
1728.203125	2275.687744
1726.613281	2237.471191
1725.023438	2318.744873
1723.431641	2278.963135
1721.841797	2264.340088
1720.250000	2342.414063
1718.658203	2439.303467
1717.066406	2418.373535
1715.474609	2375.471924
1713.880859	2412.643555
1712.289063	2454.507324
1710.695313	2435.160400
1709.101563	2429.939941
1707.507813	2371.396484
1705.914063	2443.025879
1704.318359	2400.181152
1702.722656	2363.624023
1701.128906	2427.373779
1699.533203	2376.725342
1697.935547	2410.683594
1696.339844	2364.757813
1694.744141	2397.138184
1693.146484	2354.365234
1691.548828	2322.565918
1689.951172	2315.815430
1688.353516	2360.693359
1686.755859	2299.194580
1685.156250	2315.909180
1683.556641	2323.236084
1681.957031	2294.608643
1680.357422	2250.365723
1678.757813	2203.016357
1677.158203	2236.915771
1675.556641	2228.633057
1673.955078	2253.143799
1672.353516	2218.322021
1670.751953	2239.702637
1669.150391	2242.348877
1667.548828	2230.952637
1665.945313	2275.713135
1664.341797	2231.566162
1662.738281	2174.964600
1661.134766	2211.914063
1659.531250	2287.809082
1657.925781	2240.580078
1656.320313	2219.853271
1654.716797	2289.467773
1653.111328	2217.353760
1651.503906	2224.666992
1649.898438	2245.985107
1648.291016	2233.059082
1646.685547	2290.149658
1645.078125	2233.666016
1643.470703	2272.070068
1641.861328	2256.039063
1640.253906	2229.133301
1638.644531	2325.017090
1637.037109	2232.847168
1635.427734	2263.442139
1633.818359	2292.470947
1632.207031	2239.187012
1630.597656	2333.413330
1628.986328	2291.008301
1627.375000	2343.283447
1625.763672	2347.439209
1624.152344	2297.301758
1622.541016	2310.770264
1620.927734	2316.480469
1619.316406	2365.593262
1617.703125	2348.040771
1616.089844	2381.630371
1614.474609	2405.910156
1612.861328	2475.096680
1611.246094	2505.540039
1609.632813	2556.096924
1608.017578	2549.360596
1606.402344	2581.315430
1604.785156	2624.087158
1603.169922	2730.262939
1601.552734	2762.158447
1599.935547	2860.527832
1598.318359	3073.251953
1596.701172	3211.697266
1595.083984	3486.064697
1593.464844	3749.500488
1591.847656	4355.720215
1590.228516	4906.088379
1588.609375	5638.403320
1586.990234	6334.902344
1585.369141	6594.360352
1583.750000	6523.519043
1582.128906	6270.680664
1580.507813	5724.917969
1578.886719	5133.129395
1577.263672	4501.511719
1575.642578	4124.476074
1574.019531	3672.093994
1572.396484	3484.892822
1570.773438	3313.174561
1569.150391	3133.829590
1567.527344	2897.594482
1565.902344	2816.930420
1564.279297	2714.754639
1562.654297	2629.547852
1561.029297	2595.141602
1559.402344	2494.616455
1557.777344	2444.876953
1556.150391	2501.234375
1554.525391	2480.717285
1552.898438	2414.108643
1551.269531	2361.355469
1549.642578	2433.041748
1548.015625	2411.020508
1546.386719	2327.594238
1544.757813	2265.694092
1543.128906	2369.567139
1541.500000	2356.783691
1539.869141	2345.539551
1538.240234	2417.120361
1536.609375	2306.198242
1534.978516	2281.174316
1533.347656	2325.133057
1531.716797	2346.087158
1530.083984	2324.134277
1528.453125	2364.991455
1526.820313	2344.575195
1525.187500	2279.766113
1523.552734	2294.583496
1521.919922	2249.708008
1520.287109	2226.272949
1518.652344	2169.193115
1517.017578	2236.021240
1515.382813	2197.312744
1513.748047	2224.357666
1512.111328	2245.277100
1510.474609	2255.490479
1508.839844	2264.171387
1507.203125	2254.519287
1505.564453	2267.777832
1503.927734	2306.985840
1502.291016	2201.162598
1500.652344	2205.266846
1499.013672	2213.946289
1497.375000	2189.061523
1495.736328	2272.472656
1494.095703	2267.408203
1492.457031	2247.100830
1490.816406	2274.051025
1489.175781	2331.466064
1487.535156	2366.003418
1485.892578	2333.506104
1484.251953	2357.367920
1482.609375	2405.579590
1480.966797	2377.660889
1479.324219	2349.753906
1477.681641	2364.461426
1476.037109	2293.975342
1474.394531	2361.918945
1472.750000	2359.887939
1471.105469	2338.094727
1469.460938	2380.146240
1467.814453	2335.564209
1466.169922	2316.828369
1464.523438	2410.499268
1462.876953	2382.643311
1461.230469	2369.981934
1459.583984	2330.003174
1457.935547	2409.930908
1456.289063	2325.959961
1454.640625	2357.311768
1452.992188	2399.266113
1451.343750	2360.839600
1449.693359	2369.423828
1448.044922	2384.066406
1446.394531	2369.912109
1444.744141	2384.548096
1443.093750	2429.470215
1441.443359	2386.542725
1439.792969	2419.332764
1438.140625	2391.562256
1436.488281	2336.563965
1434.835938	2319.414063
1433.183594	2314.372559
1431.529297	2321.431885
1429.876953	2322.439941
1428.222656	2382.402588
1426.568359	2295.738281
1424.914063	2326.970947
1423.259766	2343.083008
1421.603516	2378.822754
1419.949219	2381.325684
1418.292969	2355.143066
1416.636719	2443.684326
1414.980469	2438.625732
1413.322266	2459.217529
1411.666016	2419.464111
1410.007813	2513.946045
1408.349609	2551.092285
1406.691406	2643.996338
1405.031250	2562.038574
1403.373047	2641.338623
1401.712891	2713.071777
1400.052734	2766.700195
1398.392578	2832.351318
1396.732422	2922.060791
1395.072266	2918.413574
1393.410156	2941.854004
1391.748047	2995.373047
1390.085938	2955.612549
1388.423828	3025.646729
1386.761719	3124.215820
1385.097656	3088.961914
1383.433594	2999.621826
1381.769531	3107.146240
1380.105469	3049.385986
1378.441406	3021.687012
1376.777344	2923.429443
1375.111328	2979.835693
1373.445313	2974.682129
1371.779297	2942.521240
1370.113281	2869.868896
1368.445313	2902.238770
1366.779297	2744.152832
1365.111328	2839.502197
1363.443359	2742.952881
1361.775391	2754.341309
1360.107422	2740.254639
1358.437500	2702.207764
1356.767578	2575.820557
1355.097656	2639.637939
1353.427734	2544.754395
1351.757813	2526.238281
1350.087891	2591.520264
1348.416016	2508.676514
1346.744141	2470.736816
1345.072266	2447.766113
1343.400391	2423.310547
1341.726563	2458.650146
1340.054688	2402.822266
1338.380859	2402.295166
1336.707031	2392.806641
1335.033203	2329.562500
1333.359375	2373.840820
1331.683594	2340.481445
1330.007813	2365.337402
1328.332031	2352.882080
1326.656250	2374.740479
1324.980469	2387.640869
1323.304688	2270.817139
1321.626953	2255.411377
1319.949219	2250.444580
1318.271484	2294.651123
1316.593750	2319.471680
1314.914063	2211.726318
1313.236328	2291.648682
1311.556641	2197.354980
1309.876953	2263.849365
1308.197266	2211.268799
1306.515625	2291.120117
1304.835938	2180.547363
1303.154297	2337.698242
1301.472656	2264.332275
1299.791016	2315.858643
1298.109375	2282.654297
1296.425781	2286.608643
1294.744141	2397.513184
1293.060547	2355.401367
1291.376953	2381.608398
1289.691406	2311.313477
1288.007813	2362.748535
1286.322266	2299.907227
1284.636719	2424.012451
1282.951172	2330.038574
1281.265625	2357.698242
1279.580078	2333.457520
1277.892578	2395.193604
1276.205078	2376.882568
1274.517578	2443.025879
1272.830078	2436.561523
1271.142578	2350.132813
1269.453125	2354.055176
1267.765625	2390.540039
1266.076172	2351.534424
1264.384766	2319.943848
1262.695313	2266.178467
1261.005859	2289.339600
1259.314453	2266.654297
1257.623047	2235.109375
1255.931641	2250.871826
1254.240234	2275.492676
1252.546875	2320.783936
1250.855469	2298.115967
1249.162109	2304.989746
1247.468750	2356.148926
1245.773438	2371.862305
1244.080078	2272.469482
1242.384766	2314.749512
1240.691406	2320.135986
1238.996094	2234.092041
1237.298828	2280.774658
1235.603516	2253.736816
1233.906250	2200.184570
1232.210938	2164.336182
1230.513672	2152.071533
1228.816406	2157.484375
1227.117188	2139.336914
1225.419922	2110.893066
1223.720703	2076.574951
1222.021484	2093.770020
1220.322266	2141.849365
1218.623047	2156.080322
1216.921875	2123.252197
1215.220703	2055.156982
1213.519531	2063.518311
1211.818359	2070.406250
1210.117188	2094.919922
1208.416016	2059.203613
1206.712891	2057.276611
1205.009766	2097.925537
1203.306641	2081.312744
1201.603516	2060.304932
1199.898438	2071.583008
1198.195313	2053.519775
1196.490234	2070.659668
1194.785156	2052.604492
1193.078125	2047.749268
1191.373047	2173.324951
1189.666016	2251.959229
1187.960938	2334.952637
1186.253906	2536.534180
1184.544922	2595.999512
1182.837891	2636.408203
1181.128906	2600.694824
1179.421875	2608.893311
1177.712891	2491.280273
1176.001953	2383.957520
1174.292969	2355.642578
1172.582031	2241.088135
1170.873047	2174.816650
1169.162109	2155.334229
1167.451172	2137.321289
1165.738281	2094.486084
1164.027344	2039.987793
1162.314453	2074.569824
1160.601563	2060.968994
1158.888672	2080.937744
1157.173828	2008.982910
1155.460938	2058.126465
1153.746094	2015.374634
1152.031250	2052.830566
1150.316406	2090.269531
1148.601563	2180.155029
1146.884766	2111.187500
1145.169922	2179.177734
1143.453125	2225.291992
1141.736328	2188.392334
1140.017578	2256.318848
1138.300781	2223.794678
1136.582031	2226.205566
1134.863281	2240.252930
1133.144531	2210.662354
1131.425781	2234.885010
1129.705078	2221.299316
1127.986328	2181.558350
1126.265625	2138.928955
1124.544922	2152.975830
1122.822266	2078.418213
1121.101563	2061.978027
1119.378906	2077.483643
1117.656250	2097.336670
1115.933594	2120.082764
1114.210938	2116.704102
1112.486328	2151.038818
1110.763672	2188.258301
1109.039063	2274.754150
1107.314453	2291.635742
1105.589844	2273.729736
1103.863281	2352.903320
1102.136719	2416.107422
1100.412109	2372.117432
1098.683594	2419.361816
1096.957031	2414.473877
1095.230469	2261.973389
1093.501953	2429.300537
1091.773438	2373.783691
1090.044922	2519.316162
1088.316406	2621.406006
1086.585938	2856.441895
1084.857422	3123.166504
1083.126953	3489.469727
1081.396484	3894.610840
1079.666016	4098.816406
1077.933594	4278.382324
1076.201172	4179.249512
1074.470703	3987.791504
1072.736328	3698.298584
1071.003906	3241.590820
1069.271484	3020.185059
1067.537109	2824.834717
1065.802734	2626.689209
1064.068359	2523.760742
1062.333984	2412.232422
1060.597656	2310.839111
1058.863281	2265.665039
1057.126953	2273.791992
1055.390625	2162.420410
1053.652344	2223.822998
1051.916016	2221.880127
1050.177734	2107.717773
1048.439453	2120.185303
1046.701172	2079.438721
1044.962891	2106.284180
1043.224609	2101.493896
1041.484375	2118.261963
1039.744141	2084.735840
1038.003906	2028.241699
1036.263672	2124.000244
1034.521484	2156.540771
1032.779297	2199.114502
1031.037109	2256.019775
1029.294922	2251.202881
1027.552734	2178.967285
1025.810547	2096.725342
1024.066406	2146.432373
1022.322266	2028.397583
1020.578125	2023.636597
1018.832031	1952.966797
1017.087891	1956.819824
1015.341797	2059.492188
1013.595703	2021.794800
1011.849609	2021.334473
1010.103516	1996.543457
1008.355469	1913.097046
1006.607422	1878.327637
1004.859375	1970.864868
1003.111328	1938.957642
1001.363281	1968.536743
999.613281	1926.639404
997.865234	1934.773560
996.115234	1872.902100
994.363281	1871.046387
992.613281	1837.776489
990.861328	1880.185669
989.111328	1854.064941
987.359375	1823.675049
985.605469	1856.071411
983.853516	1855.647339
982.099609	1910.837280
980.347656	1866.204712
978.593750	1814.465576
976.837891	1872.476563
975.083984	1826.458008
973.328125	1865.922607
971.572266	1799.989746
969.816406	1828.052124
968.060547	1873.182129
966.304688	1842.869019
964.546875	1806.878540
962.789063	1826.378418
961.031250	1825.960083
959.273438	1856.820435
957.513672	1795.273193
955.753906	1854.548218
953.996094	1834.232056
952.234375	1785.515869
950.474609	1854.692871
948.714844	1882.663452
946.953125	1829.710693
945.191406	1819.356689
943.429688	1809.007202
941.666016	1836.961914
939.904297	1825.194702
938.140625	1812.014771
936.376953	1831.443848
934.613281	1865.035767
932.847656	1861.773438
931.083984	1803.266846
929.318359	1815.598267
927.552734	1818.012451
925.787109	1834.581177
924.019531	1760.566284
922.253906	1837.981812
920.486328	1758.341431
918.718750	1800.364746
916.951172	1791.466431
915.181641	1833.462402
913.412109	1831.626709
911.644531	1795.880615
909.873047	1794.054077
908.103516	1780.929688
906.333984	1818.642822
904.562500	1833.751709
902.791016	1810.747437
901.019531	1808.918701
899.246094	1805.679932
897.474609	1829.239258
895.701172	1779.465820
893.927734	1874.915283
892.154297	1897.032471
890.378906	1855.731567
888.605469	1798.953491
886.830078	1892.901123
885.054688	1826.283813
883.279297	1846.977905
881.501953	1842.328613
879.726563	1841.902588
877.949219	1776.764526
876.171875	1801.669678
874.392578	1829.375366
872.615234	1796.618408
870.835938	1883.342285
869.056641	1791.571167
867.277344	1792.561035
865.498047	1845.516968
863.716797	1831.047607
861.935547	1826.411621
860.154297	1845.637695
858.373047	1839.597046
856.591797	1818.127319
854.808594	1869.599976
853.025391	1871.970703
851.242188	1889.761108
849.458984	1880.913086
847.673828	1832.833984
845.890625	1864.629639
844.105469	1928.624146
842.320313	1844.159790
840.533203	1866.130615
838.748047	1846.102295
836.960938	1842.874634
835.173828	1885.814331
833.386719	1811.247559
831.599609	1820.614624
829.810547	1843.957031
828.021484	1800.200317
826.232422	1787.205200
824.443359	1781.201172
822.654297	1764.026245
820.863281	1771.993652
819.072266	1800.897949
817.281250	1773.959717
815.490234	1737.266235
813.697266	1731.281006
811.904297	1769.930298
810.111328	1743.023804
808.318359	1767.711060
806.525391	1687.853882
804.730469	1725.083130
802.937500	1774.832886
801.142578	1711.743042
799.345703	1711.343506
797.550781	1716.512451
795.753906	1723.070679
793.957031	1697.621460
792.160156	1768.174316
790.363281	1659.275513
788.564453	1714.508423
786.767578	1704.376221
784.968750	1674.790527
783.169922	1682.736206
781.369141	1707.348511
779.570313	1727.782471
777.769531	1759.315186
775.968750	1733.915039
774.166016	1732.121216
772.365234	1680.374756
770.562500	1664.721191
768.759766	1718.422119
766.957031	1704.153320
765.154297	1710.685425
763.349609	1690.880859
761.546875	1655.843384
759.742188	1744.115479
757.937500	1739.551514
756.130859	1707.296021
754.324219	1716.585815
752.519531	1670.510376
750.712891	1744.837769
748.904297	1718.144165
747.097656	1739.869385
745.289063	1722.868164
743.480469	1732.140137
741.671875	1686.124878
739.863281	1698.164307
738.052734	1747.496216
736.242188	1675.268433
734.431641	1638.974487
732.621094	1684.143677
730.810547	1732.051636
728.998047	1720.605713
727.185547	1647.088867
725.373047	1703.246094
723.560547	1693.193359
721.746094	1794.803345
719.931641	1718.581177
718.117188	1698.886353
716.302734	1737.056763
714.488281	1721.498169
712.671875	1744.499146
710.855469	1679.390015
709.039063	1681.746460
707.222656	1674.470215
705.404297	1682.328613
703.587891	1670.929565
701.769531	1717.282715
699.949219	1659.144043
698.130859	1657.378052
696.310547	1720.188354
694.492188	1699.177612
692.669922	1707.015991
690.849609	1732.699219
689.029297	1691.109985
687.207031	1755.209717
685.384766	1697.170410
683.562500	1659.733643
681.738281	1619.571777
679.916016	1631.527832
678.091797	1657.185181
676.267578	1606.088745
674.443359	1667.361084
672.617188	1623.134766
670.792969	1541.955200
668.966797	1634.687622
667.138672	1580.918701
665.312500	1579.175537
663.484375	1595.218628
661.658203	1530.554321
659.830078	1558.908081
658.000000	1588.615479
656.171875	1563.635864
654.341797	1597.427124
652.511719	1509.613403
650.681641	1521.547607
648.851563	1544.400146
647.019531	1574.067627
645.187500	1540.936890
643.355469	1616.985352
641.523438	1548.390137
639.689453	1553.477661
637.857422	1554.471924
636.023438	1570.461304
634.189453	1579.628296
632.353516	1573.802124
630.519531	1596.586426
628.683594	1563.519653
626.847656	1529.106934
625.011719	1543.717163
623.173828	1562.403320
621.335938	1532.096924
619.498047	1485.480713
617.660156	1525.927002
615.822266	1578.590942
613.982422	1564.621094
612.142578	1545.221680
610.302734	1467.406738
608.462891	1514.600342
606.621094	1491.151978
604.781250	1541.032471
602.939453	1512.159058
601.097656	1492.798828
599.253906	1539.929321
597.410156	1543.630981
595.568359	1533.769409
593.724609	1530.691528
591.878906	1530.325806
590.035156	1529.960083
588.189453	1475.401489
586.343750	1517.038208
584.498047	1538.342285
582.650391	1573.174438
580.804688	1606.636353
578.957031	1564.302612
577.107422	1578.809937
575.259766	1558.143677
573.412109	1575.349731
571.562500	1558.749634
569.712891	1544.860474
567.861328	1466.117310
566.011719	1536.014648
564.160156	1511.335571
562.308594	1555.532837
560.457031	1537.610352
558.605469	1576.381348
556.751953	1540.920898
554.898438	1559.437256
553.044922	1549.622437
551.191406	1506.103394
549.335938	1515.178101
547.482422	1491.903442
545.626953	1585.861450
543.769531	1565.274780
541.914063	1508.336182
540.056641	1590.104492
538.199219	1584.338135
536.341797	1573.191162
534.484375	1636.048462
532.625000	1630.274536
530.765625	1639.296021
528.906250	1613.356812
527.046875	1721.843994
525.187500	1780.557617
523.326172	1719.671875
521.464844	1772.984619
519.603516	1749.729370
517.740234	1707.689697
515.878906	1630.772949
514.015625	1603.542480
512.152344	1596.448364
510.287109	1593.381104
508.423828	1535.338013
506.558594	1492.069092
504.693359	1530.576782
502.826172	1496.709106
500.960938	1469.555786
499.093750	1449.111816
497.226563	1479.558228
495.359375	1418.962158
493.492188	1480.182251
491.623047	1426.304810
489.753906	1446.025391
487.884766	1444.338745
486.015625	1390.508545
484.144531	1436.957153
482.273438	1432.600708
480.402344	1483.024414
478.531250	1449.272461
476.658203	1454.263550
474.787109	1416.529175
472.914063	1404.173584
471.041016	1441.198120
469.166016	1415.500854
467.291016	1384.480835
465.417969	1425.483276
463.541016	1403.807617
461.666016	1414.130127
459.789063	1413.787476
457.914063	1410.780396
456.037109	1338.518066
454.158203	1355.503540
452.281250	1408.423340
450.402344	1436.030396
448.523438	1385.120483
446.644531	1360.839966
444.763672	1401.737183
442.884766	1381.453003
441.003906	1395.739624
439.121094	1342.242554
437.240234	1411.005371
435.357422	1349.560425
433.476563	1395.711914
431.591797	1390.062134
429.708984	1429.544434
427.826172	1402.656494
425.941406	1349.247681
424.056641	1348.919556
422.169922	1352.569580
420.285156	1398.640869
418.398438	1399.625977
416.511719	1403.260498
414.625000	1396.295044
412.738281	1389.332886
410.849609	1392.966919
408.960938	1360.856567
407.072266	1351.260742
405.181641	1364.162964
403.292969	1345.310913
401.402344	1341.015503
399.511719	1310.278442
397.619141	1337.717896
395.728516	1320.211670
393.835938	1330.459229
391.943359	1320.888428
390.050781	1287.551880
388.156250	1311.001953
386.263672	1376.677979
384.369141	1351.269409
382.472656	1346.981445
380.578125	1344.014526
378.681641	1297.534058
376.785156	1322.264771
374.888672	1286.355957
372.992188	1366.419067
371.093750	1368.719604
369.195313	1326.240112
367.296875	1298.265015
365.398438	1346.653320
363.498047	1316.054565
361.597656	1377.571899
359.697266	1327.249023
357.796875	1351.910767
355.894531	1377.875000
353.992188	1339.418579
352.089844	1327.263428
350.187500	1350.586548
348.285156	1375.211670
346.380859	1369.621948
344.476563	1382.414429
342.572266	1358.450195
340.666016	1390.921875
338.759766	1398.451782
336.853516	1396.797119
334.947266	1401.699219
333.041016	1371.204468
331.132813	1345.966797
329.224609	1399.356934
327.316406	1346.615723
325.408203	1373.786865
323.498047	1385.233032
321.587891	1345.623413
319.677734	1379.317627
317.767578	1354.120361
315.855469	1361.635498
313.943359	1336.454590
312.031250	1357.043701
310.119141	1433.825317
308.205078	1348.535767
306.292969	1376.944580
304.378906	1373.993530
302.462891	1431.108521
300.548828	1421.618164
298.632813	1448.675415
296.716797	1478.328735
294.800781	1441.439331
292.882813	1499.770874
290.966797	1487.666748
