#Wave		#Intensity
3200.881836	1610.038574
3200.179688	1627.702148
3199.477539	1642.302490
3198.775391	1654.485840
3198.073242	1653.229004
3197.370117	1651.944336
3196.667969	1653.993774
3195.964844	1646.340698
3195.262695	1624.232788
3194.559570	1601.374512
3193.856445	1595.719849
3193.152344	1580.034302
3192.449219	1572.885498
3191.746094	1570.274414
3191.041992	1554.872803
3190.338867	1556.755981
3189.634766	1548.769775
3188.930664	1533.189087
3188.226563	1545.334839
3187.522461	1551.951904
3186.817383	1570.301636
3186.113281	1579.323730
3185.408203	1581.803955
3184.704102	1613.582886
3183.999023	1587.031372
3183.293945	1551.531982
3182.588867	1544.954712
3181.883789	1547.871094
3181.177734	1549.392456
3180.472656	1542.869263
3179.766602	1542.201904
3179.061523	1549.097412
3178.355469	1523.057495
3177.649414	1520.440430
3176.943359	1537.671753
3176.236328	1540.154297
3175.530273	1522.621948
3174.823242	1479.198120
3174.117188	1464.249634
3173.410156	1452.466187
3172.703125	1463.129395
3171.996094	1476.617798
3171.289063	1496.053833
3170.582031	1503.398315
3169.874023	1489.753784
3169.166992	1484.341919
3168.458984	1495.043091
3167.750977	1491.978271
3167.042969	1486.685181
3166.334961	1464.899048
3165.626953	1475.163208
3164.918945	1483.496216
3164.209961	1466.046753
3163.501953	1473.138550
3162.792969	1488.036011
3162.083984	1496.839966
3161.375000	1493.149414
3160.666016	1492.581055
3159.957031	1502.423584
3159.248047	1501.545532
3158.538086	1477.578247
3157.829102	1468.296143
3157.119141	1472.976440
3156.409180	1463.823608
3155.699219	1475.007324
3154.989258	1489.658447
3154.279297	1485.637329
3153.568359	1479.445435
3152.858398	1487.699707
3152.147461	1476.948242
3151.436523	1478.066528
3150.725586	1455.424438
3150.014648	1473.501587
3149.303711	1479.210449
3148.592773	1453.193237
3147.880859	1443.029053
3147.169922	1439.904785
3146.458008	1427.347290
3145.746094	1427.213257
3145.034180	1414.643677
3144.322266	1412.220459
3143.610352	1408.295776
3142.898438	1390.409424
3142.185547	1384.560425
3141.473633	1384.422729
3140.760742	1397.137207
3140.047852	1410.449829
3139.334961	1427.549316
3138.622070	1428.850952
3137.908203	1443.704468
3137.195313	1431.811523
3136.482422	1430.608887
3135.768555	1430.517212
3135.054688	1423.694092
3134.340820	1419.455078
3133.626953	1431.650635
3132.913086	1440.090454
3132.199219	1458.724121
3131.484375	1430.543457
3130.770508	1438.512817
3130.055664	1428.532471
3129.340820	1403.051880
3128.625977	1398.311279
3127.911133	1426.566895
3127.196289	1443.363159
3126.480469	1461.233887
3125.765625	1440.936279
3125.049805	1461.144043
3124.333984	1453.778809
3123.619141	1429.953125
3122.903320	1425.659424
3122.186523	1426.159912
3121.470703	1437.472656
3120.754883	1425.970215
3120.038086	1425.152466
3119.321289	1429.284790
3118.605469	1416.734253
3117.888672	1398.522339
3117.171875	1386.946777
3116.454102	1382.135132
3115.737305	1392.005859
3115.020508	1386.863647
3114.302734	1398.724243
3113.584961	1385.727417
3112.867188	1377.108154
3112.149414	1367.781372
3111.431641	1344.306763
3110.713867	1333.273193
3109.996094	1334.585571
3109.277344	1343.605225
3108.558594	1342.921143
3107.840820	1335.982788
3107.122070	1339.156250
3106.403320	1325.789063
3105.683594	1312.086792
3104.964844	1307.317261
3104.246094	1320.586548
3103.526367	1334.650513
3102.806641	1356.109375
3102.086914	1364.532959
3101.367188	1378.282593
3100.647461	1359.254883
3099.927734	1345.485718
3099.208008	1341.336548
3098.487305	1331.485718
3097.766602	1325.301392
3097.046875	1328.792603
3096.326172	1320.487915
3095.605469	1334.705811
3094.883789	1315.713135
3094.163086	1323.134766
3093.442383	1334.019043
3092.720703	1348.896118
3091.999023	1359.185913
3091.278320	1347.678345
3090.556641	1335.145142
3089.833984	1328.487793
3089.112305	1305.018433
3088.390625	1287.895386
3087.667969	1264.307739
3086.946289	1295.536743
3086.223633	1303.998535
3085.500977	1299.260132
3084.778320	1304.948853
3084.055664	1310.923340
3083.332031	1325.307495
3082.609375	1300.898071
3081.885742	1296.081421
3081.163086	1312.604004
3080.439453	1291.255615
3079.715820	1299.076538
3078.992188	1307.851440
3078.268555	1315.928711
3077.543945	1321.770142
3076.820313	1295.546143
3076.095703	1298.458496
3075.371094	1303.479980
3074.646484	1301.528931
3073.921875	1316.328979
3073.197266	1311.549316
3072.472656	1307.146729
3071.747070	1310.592285
3071.022461	1319.760864
3070.296875	1327.303833
3069.571289	1344.762939
3068.845703	1350.810791
3068.120117	1360.296631
3067.394531	1365.414307
3066.667969	1352.552979
3065.942383	1347.678345
3065.215820	1314.786255
3064.489258	1287.260620
3063.762695	1269.257080
3063.036133	1241.656860
3062.309570	1263.628662
3061.583008	1268.495239
3060.855469	1246.194092
3060.128906	1251.673706
3059.401367	1241.608276
3058.673828	1263.398071
3057.946289	1274.751465
3057.218750	1293.487183
3056.491211	1309.841309
3055.762695	1292.042603
3055.035156	1253.962891
3054.306641	1268.966064
3053.578125	1277.909546
3052.849609	1282.910767
3052.121094	1297.469604
3051.392578	1330.331055
3050.664063	1337.149658
3049.934570	1337.181763
3049.206055	1329.967651
3048.476563	1351.852539
3047.747070	1337.545532
3047.017578	1315.499390
3046.288086	1302.382080
3045.558594	1302.861328
3044.828125	1305.262329
3044.098633	1305.448120
3043.368164	1325.174316
3042.637695	1342.279785
3041.907227	1329.251709
3041.176758	1323.861694
3040.446289	1316.425781
3039.714844	1317.523193
3038.984375	1314.585327
3038.252930	1301.924438
3037.521484	1300.638550
3036.790039	1298.431641
3036.058594	1322.689819
3035.327148	1343.454346
3034.595703	1342.820679
3033.863281	1355.185303
3033.131836	1345.684448
3032.399414	1334.627563
3031.666992	1309.595459
3030.934570	1306.829102
3030.202148	1339.217651
3029.469727	1335.135742
3028.736328	1329.827393
3028.003906	1357.941528
3027.270508	1358.645508
3026.537109	1379.079468
3025.804688	1387.419189
3025.070313	1375.843506
3024.336914	1374.984253
3023.603516	1370.110229
3022.869141	1372.897217
3022.135742	1377.347534
3021.401367	1389.845093
3020.666992	1412.345703
3019.932617	1442.756104
3019.198242	1445.900635
3018.463867	1468.135986
3017.728516	1508.750000
3016.993164	1561.176270
3016.258789	1600.243774
3015.523438	1641.162598
3014.788086	1668.150757
3014.052734	1716.478271
3013.317383	1775.312622
3012.581055	1873.836548
3011.845703	2028.580933
3011.109375	2233.585449
3010.373047	2512.069580
3009.636719	2837.784668
3008.900391	3277.544678
3008.164063	3894.211426
3007.427734	4760.735352
3006.690430	5827.843262
3005.953125	7043.217773
3005.216797	8286.828125
3004.479492	9357.227539
3003.742188	10051.861328
3003.003906	10276.547852
3002.266602	9957.012695
3001.529297	9221.420898
3000.791016	8226.733398
3000.052734	7216.400391
2999.315430	6286.592285
2998.577148	5557.483887
2997.837891	5037.565918
2997.099609	4633.716797
2996.361328	4271.712891
2995.622070	3898.807129
2994.882813	3571.537109
2994.144531	3255.729980
2993.405273	2922.363281
2992.666016	2693.829834
2991.925781	2509.849854
2991.186523	2383.585205
2990.446289	2311.634033
2989.707031	2224.131836
2988.966797	2155.443359
2988.226563	2075.540283
2987.486328	1972.942261
2986.746094	1926.324585
2986.005859	1892.858154
2985.264648	1863.343994
2984.523438	1846.121460
2983.783203	1828.393799
2983.041992	1829.795898
2982.300781	1837.406616
2981.559570	1880.342773
2980.817383	1973.936401
2980.076172	2013.851196
2979.333984	2031.587891
2978.592773	2107.849365
2977.850586	2212.044189
2977.108398	2358.723389
2976.366211	2575.945068
2975.623047	2907.645020
2974.880859	3284.231934
2974.137695	3771.305908
2973.395508	4396.846191
2972.652344	5316.266602
2971.909180	6504.479492
2971.166016	8044.826660
2970.422852	9901.942383
2969.678711	11915.338867
2968.935547	13723.705078
2968.191406	15132.908203
2967.447266	15848.980469
2966.703125	15782.290039
2965.958984	14869.052734
2965.214844	13396.694336
2964.470703	11633.712891
2963.725586	9891.133789
2962.981445	8337.789063
2962.236328	7143.300293
2961.491211	6377.220215
2960.746094	5887.942383
2960.000977	5588.639648
2959.254883	5530.541016
2958.509766	5644.419922
2957.763672	5958.547852
2957.018555	6526.858398
2956.272461	7427.972168
2955.526367	8663.891602
2954.780273	10144.851563
2954.033203	11551.104492
2953.287109	12810.407227
2952.540039	13578.510742
2951.793945	13655.400391
2951.046875	13041.068359
2950.299805	11881.506836
2949.552734	10354.040039
2948.804688	8727.527344
2948.057617	7117.456543
2947.310547	5818.056152
2946.562500	4834.940430
2945.814453	4113.469238
2945.066406	3592.730225
2944.318359	3208.585693
2943.570313	2897.674805
2942.821289	2616.676025
2942.073242	2382.084473
2941.324219	2204.311768
2940.575195	2071.590820
2939.826172	1984.764893
2939.077148	1877.249390
2938.328125	1779.665405
2937.579102	1686.548828
2936.829102	1613.926025
2936.080078	1537.409302
2935.330078	1491.137207
2934.580078	1441.072998
2933.830078	1426.546509
2933.080078	1375.347168
2932.329102	1336.433350
2931.579102	1271.214844
2930.828125	1249.603271
2930.078125	1197.619873
2929.327148	1183.949829
2928.576172	1182.876465
2927.824219	1169.671021
2927.073242	1137.170776
2926.322266	1131.809570
2925.570313	1101.201172
2924.818359	1092.255005
2924.067383	1053.308228
2923.314453	1077.942871
2922.562500	1086.356934
2921.810547	1073.011963
2921.058594	1070.002930
2920.305664	1073.656738
2919.552734	1077.544556
2918.799805	1064.087036
2918.046875	1040.749268
2917.293945	1029.344971
2916.541016	1014.175659
2915.788086	1016.664734
2915.034180	995.401062
2914.280273	978.163818
2913.526367	963.995483
2912.772461	949.954346
2912.018555	940.252380
2911.264648	919.659302
2910.510742	913.976074
2909.755859	909.970703
2909.000977	893.516724
2908.247070	892.489380
2907.492188	906.190918
2906.736328	944.060730
2905.981445	939.424438
2905.226563	945.151672
2904.470703	915.132507
2903.715820	906.490479
2902.959961	916.893250
2902.204102	905.303284
2901.448242	918.397705
2900.691406	937.151123
2899.935547	927.794495
2899.179688	936.607056
2898.422852	924.103699
2897.666016	932.463440
2896.909180	943.641724
2896.152344	901.480530
2895.395508	896.764832
2894.637695	897.991455
2893.880859	899.550903
2893.123047	904.383606
2892.365234	927.295593
2891.607422	927.561401
2890.849609	957.066284
2890.091797	939.410767
2889.333984	941.741455
2888.575195	921.317200
2887.817383	897.792847
2887.058594	909.294128
2886.299805	917.549500
2885.541016	901.650146
2884.782227	907.040833
2884.022461	909.125610
2883.263672	928.619568
2882.503906	892.770508
2881.744141	894.000610
2880.984375	916.114624
2880.224609	929.579773
2879.464844	897.127441
2878.705078	867.988037
2877.944336	881.332947
2877.183594	915.694824
2876.423828	914.954590
2875.663086	920.689270
2874.902344	917.505493
2874.140625	913.887756
2873.379883	871.968140
2872.619141	839.462158
2871.857422	824.910339
2871.095703	840.335815
2870.333984	847.952026
2869.572266	853.612732
2868.810547	846.536987
2868.047852	832.274963
2867.286133	838.441101
2866.523438	818.426880
2865.761719	811.375488
2864.999023	825.252930
2864.236328	847.159851
2863.472656	871.756653
2862.709961	857.165283
2861.946289	844.238831
2861.183594	852.384399
2860.419922	829.019409
2859.656250	815.832092
2858.892578	832.175110
2858.128906	842.471252
2857.364258	842.829285
2856.600586	847.677368
2855.835938	869.927490
2855.071289	853.600159
2854.306641	816.438721
2853.541992	798.292786
2852.777344	803.814880
2852.012695	814.652771
2851.247070	843.152954
2850.482422	867.137451
2849.716797	893.341919
2848.951172	855.837097
2848.185547	835.337219
2847.418945	827.662720
2846.653320	830.639526
2845.887695	846.747925
2845.121094	879.652466
2844.354492	883.451416
2843.587891	888.018677
2842.821289	860.780029
2842.054688	857.956238
2841.287109	851.285828
2840.520508	837.771057
2839.752930	839.255798
2838.985352	859.178467
2838.217773	868.611633
2837.450195	902.215210
2836.682617	925.026855
2835.915039	951.488281
2835.146484	966.728271
2834.377930	976.250183
2833.610352	992.930054
2832.841797	1023.623474
2832.072266	1062.674561
2831.303711	1111.559937
2830.535156	1126.435669
2829.765625	1138.318604
2828.996094	1137.491333
2828.227539	1136.967651
2827.458008	1123.510498
2826.688477	1144.402100
2825.917969	1125.172729
2825.148438	1107.006104
2824.377930	1080.901611
2823.608398	1056.192383
2822.837891	1012.821411
2822.067383	969.575806
2821.295898	948.313293
2820.525391	917.315002
2819.754883	873.996948
2818.983398	853.565857
2818.211914	840.587402
2817.441406	835.019287
2816.669922	843.807678
2815.897461	852.705200
2815.125977	856.671814
2814.354492	837.313782
2813.582031	828.944824
2812.809570	794.869324
2812.037109	786.663635
2811.264648	772.158508
2810.492188	769.078491
2809.719727	760.302246
2808.946289	742.030640
2808.173828	737.153015
2807.400391	753.257874
2806.626953	773.789795
2805.853516	805.145264
2805.080078	791.879883
2804.305664	790.948730
2803.532227	779.824890
2802.757813	773.996277
2801.983398	775.998718
2801.208984	796.015747
2800.434570	812.660278
2799.660156	800.267456
2798.885742	797.199036
2798.110352	794.431335
2797.335938	771.459412
2796.560547	766.309937
2795.785156	766.136536
2795.009766	763.270752
2794.233398	757.665771
2793.458008	751.799622
2792.682617	758.133850
2791.906250	764.068237
2791.129883	767.228943
2790.353516	782.894470
2789.577148	803.529785
2788.800781	790.362122
2788.023438	782.102478
2787.247070	785.090942
2786.469727	783.534851
2785.692383	806.028320
2784.915039	827.278503
2784.137695	824.222778
2783.360352	833.086060
2782.582031	795.347107
2781.803711	801.921570
2781.026367	796.435791
2780.248047	778.567566
2779.469727	768.950195
2778.691406	762.472717
2777.912109	758.356079
2777.133789	780.841614
2776.354492	784.634399
2775.575195	812.209290
2774.795898	807.762939
2774.016602	813.393799
2773.237305	806.740234
2772.458008	800.217773
2771.677734	799.847229
2770.898438	790.906616
2770.118164	774.254395
2769.337891	775.404114
2768.557617	775.160889
2767.776367	802.822754
2766.996094	801.325317
2766.215820	775.270020
2765.434570	777.027588
2764.653320	768.889343
2763.872070	778.859863
2763.090820	812.256287
2762.309570	822.673462
2761.527344	826.263489
2760.746094	799.023926
2759.963867	768.575623
2759.181641	746.382263
2758.399414	732.059998
2757.617188	764.487305
2756.833984	797.046448
2756.051758	811.594421
2755.268555	834.435791
2754.486328	845.620056
2753.703125	823.770020
2752.919922	766.716858
2752.135742	745.673828
2751.352539	765.052979
2750.568359	779.629822
2749.785156	780.318909
2749.000977	814.155334
2748.216797	845.963196
2747.432617	834.488159
2746.648438	830.778076
2745.863281	836.020020
2745.079102	861.270020
2744.293945	859.423767
2743.508789	845.624878
2742.723633	845.143127
2741.938477	858.150940
2741.153320	875.855835
2740.367188	885.068542
2739.582031	906.183533
2738.795898	925.248169
2738.009766	923.544495
2737.223633	900.304199
2736.437500	899.842163
2735.651367	905.736633
2734.864258	926.677917
2734.077148	904.205444
2733.291016	923.514038
2732.503906	946.145691
2731.716797	932.964233
2730.928711	920.247864
2730.141602	925.308350
2729.353516	917.566162
2728.566406	916.234619
2727.778320	902.625061
2726.990234	910.582397
2726.202148	931.561584
2725.414063	925.966675
2724.625000	939.638611
2723.836914	937.720764
2723.047852	925.405518
2722.258789	940.578064
2721.469727	925.435974
2720.680664	926.110596
2719.890625	931.131592
2719.101563	922.297607
2718.311523	934.713745
2717.522461	950.707703
2716.732422	977.412170
2715.942383	1023.263550
2715.151367	1017.888245
2714.361328	1032.990723
2713.570313	1021.575195
2712.780273	991.531555
2711.989258	995.501343
2711.198242	993.554565
2710.407227	1000.471680
2709.616211	1018.822083
2708.824219	1022.953003
2708.033203	1039.631714
2707.241211	1041.475708
2706.449219	1045.818481
2705.657227	1079.343750
2704.865234	1101.962769
2704.072266	1104.509888
2703.280273	1106.260864
2702.487305	1097.722656
2701.695313	1087.236328
2700.902344	1056.412720
2700.108398	1062.309082
2699.315430	1062.323364
2698.522461	1071.776611
2697.728516	1086.510376
2696.935547	1091.157715
2696.141602	1121.391357
2695.347656	1133.120117
2694.553711	1141.224609
2693.758789	1160.569702
2692.964844	1156.677856
2692.169922	1154.799438
2691.375977	1146.947144
2690.581055	1142.728638
2689.786133	1160.641479
2688.990234	1156.944458
2688.195313	1160.611450
2687.400391	1159.311035
2686.604492	1155.027466
2685.808594	1130.383423
2685.012695	1138.989380
2684.216797	1165.877075
2683.420898	1200.345215
2682.624023	1181.316162
2681.828125	1190.203125
2681.031250	1181.000854
2680.234375	1156.941040
2679.437500	1111.106079
2678.640625	1132.354736
2677.843750	1158.645752
2677.045898	1161.447510
2676.249023	1128.129395
2675.451172	1164.914917
2674.653320	1174.794678
2673.855469	1187.468750
2673.057617	1160.227051
2672.258789	1174.230957
2671.460938	1190.827271
2670.662109	1162.559937
2669.863281	1166.505127
2669.064453	1170.638672
2668.265625	1163.081787
2667.466797	1168.364136
2666.666992	1169.630371
2665.868164	1174.001099
2665.068359	1191.310669
2664.268555	1176.588379
2663.468750	1211.590088
2662.668945	1192.375000
2661.868164	1202.883545
2661.068359	1207.385986
2660.267578	1223.646851
2659.466797	1215.642700
2658.666016	1213.011719
2657.865234	1203.447144
2657.064453	1229.478760
2656.263672	1198.486816
2655.461914	1202.869873
2654.660156	1215.778320
2653.858398	1237.391968
2653.056641	1247.006958
2652.254883	1232.782471
2651.453125	1226.295776
2650.650391	1228.996216
2649.848633	1186.749756
2649.045898	1193.379028
2648.243164	1204.528687
2647.440430	1223.337402
2646.636719	1244.269043
2645.833984	1252.060913
2645.030273	1265.292847
2644.227539	1286.197266
2643.423828	1293.769775
2642.620117	1307.790894
2641.815430	1274.326294
2641.011719	1245.791748
2640.208008	1240.664917
2639.403320	1205.556152
2638.598633	1205.919800
2637.793945	1202.249634
2636.989258	1228.447510
2636.184570	1239.489990
2635.378906	1245.074585
2634.574219	1263.397095
2633.768555	1261.256592
2632.962891	1239.779419
2632.157227	1259.356567
2631.351563	1250.831787
2630.545898	1254.594727
2629.739258	1245.046021
2628.932617	1244.127808
2628.126953	1267.066650
2627.320313	1258.597290
2626.513672	1290.115601
2625.706055	1312.253540
2624.899414	1357.571655
2624.091797	1392.991821
2623.285156	1418.262817
2622.477539	1423.993286
2621.669922	1421.246338
2620.861328	1374.290894
2620.053711	1361.866577
2619.246094	1334.681885
2618.437500	1372.215088
2617.628906	1410.793701
2616.820313	1455.008301
2616.011719	1459.041016
2615.203125	1463.427612
2614.393555	1426.987549
2613.584961	1439.830322
2612.775391	1423.872192
2611.965820	1434.053101
2611.156250	1446.112427
2610.346680	1456.975098
2609.536133	1441.124756
2608.726563	1432.057861
2607.916016	1389.347778
2607.105469	1378.810059
2606.294922	1361.357666
2605.484375	1359.238647
2604.673828	1359.560059
2603.862305	1353.096680
2603.051758	1347.362427
2602.240234	1313.049805
2601.428711	1288.229736
2600.617188	1277.349609
2599.805664	1294.622559
2598.993164	1316.463745
2598.181641	1323.015625
2597.369141	1339.790283
2596.556641	1336.718384
2595.744141	1305.654297
2594.931641	1274.865723
2594.119141	1260.106689
2593.305664	1264.575562
2592.493164	1291.452637
2591.679688	1290.958008
2590.866211	1305.425659
2590.052734	1309.522583
2589.239258	1283.006958
2588.424805	1235.228027
2587.611328	1211.722656
2586.796875	1206.235229
2585.982422	1199.010498
2585.167969	1192.906128
2584.353516	1194.659424
2583.538086	1191.642212
2582.723633	1200.325195
2581.908203	1171.143677
2581.092773	1184.942139
2580.277344	1189.046387
2579.461914	1196.869507
2578.646484	1218.906860
2577.831055	1219.431763
2577.014648	1210.920288
2576.198242	1216.981445
2575.381836	1194.411011
2574.565430	1223.536377
2573.749023	1234.941406
2572.932617	1256.958618
2572.115234	1263.481689
2571.297852	1274.162842
2570.481445	1244.297852
2569.663086	1186.323853
2568.845703	1146.890381
2568.028320	1137.358032
2567.210938	1179.489624
2566.392578	1210.324463
2565.574219	1249.822998
2564.755859	1293.324585
2563.937500	1261.526611
2563.119141	1223.006836
2562.299805	1188.221802
2561.481445	1146.510010
2560.662109	1143.731323
2559.842773	1146.941162
2559.023438	1150.253540
2558.204102	1174.671509
2557.383789	1183.897339
2556.564453	1195.651001
2555.744141	1177.072021
2554.923828	1143.065552
2554.103516	1132.853149
2553.283203	1132.262207
2552.462891	1118.190186
2551.641602	1144.645142
2550.821289	1140.144409
2550.000000	1133.593628
2549.178711	1132.860962
2548.357422	1156.749634
2547.536133	1161.328735
2546.713867	1176.372803
2545.892578	1177.341919
2545.070313	1149.884888
2544.248047	1101.449707
2543.425781	1090.780762
2542.603516	1071.875732
2541.780273	1069.932129
2540.958008	1039.036255
2540.134766	1087.986938
2539.311523	1104.434692
2538.488281	1104.909058
2537.665039	1127.561157
2536.841797	1166.135986
2536.017578	1119.111450
2535.193359	1104.448120
2534.370117	1062.663574
2533.545898	1055.641357
2532.721680	1027.381836
2531.896484	1027.943237
2531.072266	1029.527954
2530.247070	1018.471436
2529.421875	970.141296
2528.597656	951.332764
2527.771484	942.398010
2526.946289	930.959351
2526.121094	918.144531
2525.294922	936.005615
2524.469727	951.312866
2523.643555	967.952271
2522.817383	1002.253357
2521.990234	988.530823
2521.164063	994.644714
2520.337891	990.796875
2519.510742	944.926147
2518.683594	906.497864
2517.856445	887.720886
2517.029297	883.698364
2516.202148	902.545410
2515.374023	871.192200
2514.546875	892.098145
2513.718750	893.638550
2512.890625	886.500488
2512.062500	889.244385
2511.233398	899.200867
2510.405273	918.911438
2509.576172	932.003357
2508.748047	911.281494
2507.918945	939.483765
2507.089844	939.768982
2506.259766	944.773560
2505.430664	932.589294
2504.601563	929.652649
2503.771484	966.098267
2502.941406	951.214478
2502.111328	922.461853
2501.281250	908.433533
2500.450195	903.777588
2499.620117	892.678345
2498.789063	882.390625
2497.958008	903.647217
2497.126953	945.090149
2496.295898	932.829773
2495.464844	918.024841
2494.632813	880.994751
2493.801758	861.726746
2492.969727	889.783569
2492.137695	924.949768
2491.305664	933.728882
2490.473633	940.353638
2489.640625	909.872681
2488.808594	926.918091
2487.975586	898.591187
2487.142578	911.588806
2486.309570	933.173096
2485.476563	948.491577
2484.642578	935.614319
2483.809570	910.949341
2482.975586	896.549744
2482.141602	932.428955
2481.307617	922.330688
2480.473633	939.585815
2479.638672	930.829224
2478.804688	943.029602
2477.969727	929.375122
2477.134766	899.715881
2476.299805	898.336304
2475.464844	891.729431
2474.629883	873.042175
2473.793945	863.850159
2472.958984	877.673706
2472.123047	893.344727
2471.287109	937.050964
2470.451172	955.697510
2469.614258	960.673767
2468.778320	955.379944
2467.941406	932.557678
2467.104492	895.386536
2466.267578	864.316895
2465.430664	831.800232
2464.593750	850.721436
2463.756836	819.113281
2462.918945	831.436218
2462.081055	854.134338
2461.243164	847.640320
2460.405273	815.609131
2459.567383	799.510498
2458.728516	787.066345
2457.890625	798.607178
2457.051758	775.874146
2456.212891	801.759460
2455.374023	793.860596
2454.535156	794.213074
2453.695313	786.562683
2452.856445	802.583923
2452.016602	810.076050
2451.176758	804.774536
2450.336914	806.438232
2449.497070	804.906616
2448.657227	799.322083
2447.816406	790.769592
2446.975586	795.236389
2446.135742	763.901794
2445.294922	731.040222
2444.453125	712.039124
2443.612305	743.983276
2442.770508	761.936829
2441.929688	780.690796
2441.087891	762.680237
2440.246094	765.734314
2439.404297	740.928223
2438.561523	707.219055
2437.719727	717.063232
2436.876953	723.736389
2436.034180	719.421448
2435.191406	695.828003
2434.348633	675.735168
2433.505859	667.765625
2432.663086	694.529114
2431.819336	685.256287
2430.975586	723.409302
2430.131836	749.148865
2429.288086	772.572388
2428.444336	783.772644
2427.599609	777.249329
2426.755859	781.611572
2425.911133	806.909607
2425.066406	790.294678
2424.221680	805.300049
2423.375977	791.646606
2422.531250	799.641235
2421.685547	795.634949
2420.840820	759.168945
2419.995117	745.411255
2419.149414	756.726685
2418.302734	752.751404
2417.457031	741.028748
2416.610352	693.550537
2415.763672	712.631653
2414.917969	711.626099
2414.070313	689.948181
2413.223633	694.330078
2412.376953	737.414307
2411.529297	742.553467
2410.681641	736.665894
2409.833984	720.287964
2408.986328	751.158142
2408.138672	760.208801
2407.291016	747.032471
2406.442383	770.151306
2405.593750	775.692993
2404.745117	760.214722
2403.896484	776.765198
2403.047852	755.471924
2402.199219	763.795105
2401.349609	760.330322
2400.500000	746.263794
2399.651367	734.643311
2398.801758	705.483093
2397.951172	698.305847
2397.101563	696.631226
2396.250977	692.747253
2395.401367	729.559631
2394.550781	779.428040
2393.700195	796.592957
2392.848633	775.708618
2391.998047	757.471313
2391.146484	733.460632
2390.295898	715.310547
2389.444336	724.831360
2388.592773	763.902588
2387.741211	795.895325
2386.888672	780.661438
2386.037109	758.559204
2385.184570	735.547852
2384.332031	696.883362
2383.479492	692.702515
2382.626953	712.577454
2381.773438	717.179260
2380.920898	722.347412
2380.067383	732.627563
2379.213867	763.040771
2378.360352	775.356750
2377.506836	767.642517
2376.653320	773.472290
2375.798828	802.453064
2374.944336	788.352600
2374.089844	804.731140
2373.235352	829.786316
2372.380859	840.975220
2371.526367	808.691772
2370.670898	770.869324
2369.815430	756.310852
2368.960938	752.459717
2368.105469	768.904846
2367.249023	773.405212
2366.393555	793.525818
2365.537109	822.450684
2364.681641	801.399292
2363.825195	795.297913
2362.968750	819.259949
2362.112305	799.372498
2361.254883	809.330383
2360.398438	785.352661
2359.541016	792.100891
2358.683594	854.427307
2357.826172	859.215332
2356.968750	882.177490
2356.110352	903.623474
2355.252930	897.819458
2354.394531	884.106445
2353.536133	866.676880
2352.677734	873.127563
2351.819336	914.583679
2350.959961	905.268433
2350.101563	908.093994
2349.242188	895.135315
2348.382813	892.998901
2347.523438	883.796631
2346.664063	853.468079
2345.803711	868.578064
2344.944336	865.790771
2344.083984	892.693665
2343.223633	943.852173
2342.363281	998.669617
2341.502930	1107.598267
2340.641602	1178.580444
2339.781250	1153.979004
2338.919922	1122.550049
2338.058594	1039.901245
2337.197266	960.469238
2336.335938	892.104675
2335.473633	857.676819
2334.612305	893.098938
2333.750000	930.570313
2332.887695	952.097473
2332.025391	982.886047
2331.163086	1000.735046
2330.299805	974.492615
2329.437500	952.127258
2328.574219	912.413452
2327.710938	911.699036
2326.847656	900.066040
2325.984375	865.095703
2325.120117	814.018738
2324.255859	753.306763
2323.392578	674.657104
2322.528320	646.512024
2321.664063	645.850952
2320.798828	703.673279
2319.934570	747.299988
2319.069336	764.322510
2318.204102	765.077515
2317.338867	743.263489
2316.473633	732.339478
2315.608398	741.715759
2314.742188	760.839111
2313.876953	762.546326
2313.010742	755.949524
2312.144531	728.183838
2311.278320	721.454834
2310.411133	735.866638
2309.544922	757.915588
2308.677734	744.324341
2307.810547	758.355286
2306.943359	742.622803
2306.076172	722.896484
2305.208984	718.808350
2304.340820	733.909851
2303.473633	764.323914
2302.605469	781.445007
2301.737305	771.137817
2300.868164	762.668335
2300.000000	747.368774
2299.131836	712.681885
2298.262695	691.649414
2297.393555	682.606812
2296.524414	691.938477
2295.655273	690.203003
2294.785156	700.639282
2293.916016	696.560120
2293.045898	713.007874
2292.175781	690.529724
2291.305664	709.013428
2290.435547	758.282410
2289.564453	782.849365
2288.694336	754.980652
2287.823242	751.131897
2286.952148	746.460510
2286.081055	789.026611
2285.208984	757.441772
2284.337891	775.097961
2283.465820	789.487854
2282.594727	759.856262
2281.722656	699.596741
2280.849609	666.288574
2279.977539	650.666809
2279.105469	688.855286
2278.232422	707.936523
2277.359375	774.160767
2276.486328	813.316223
2275.613281	823.204895
2274.740234	820.578186
2273.866211	804.279541
2272.992188	739.125122
2272.119141	704.292175
2271.245117	704.392639
2270.370117	695.765137
2269.496094	689.265198
2268.621094	705.942749
2267.747070	715.310059
2266.872070	745.126648
2265.997070	751.818420
2265.121094	755.810425
2264.246094	766.832397
2263.370117	728.039185
2262.495117	723.037781
2261.619141	717.425171
2260.743164	698.183044
2259.866211	701.255310
2258.990234	730.526062
2258.113281	715.240845
2257.237305	722.331116
2256.360352	721.911072
2255.482422	763.009399
2254.605469	806.728027
2253.728516	808.721741
2252.850586	802.551758
2251.972656	835.312195
2251.094727	811.597717
2250.216797	801.630005
2249.338867	812.776245
2248.459961	828.769470
2247.581055	830.297974
2246.703125	842.648132
2245.824219	877.450256
2244.944336	895.932434
2244.065430	925.967041
2243.185547	934.009338
2242.306641	966.435486
2241.426758	957.272095
2240.546875	963.259583
2239.666016	990.105286
2238.786133	1010.495789
2237.905273	985.902283
2237.025391	970.730896
2236.144531	931.019775
2235.263672	916.136536
2234.381836	909.600220
2233.500977	938.884338
2232.619141	928.252686
2231.737305	953.438049
2230.855469	992.046875
2229.973633	989.280762
2229.091797	987.497070
2228.208984	994.091431
2227.327148	1013.437073
2226.444336	1016.804260
2225.561523	973.184082
2224.678711	971.750732
2223.794922	1028.342773
2222.912109	1043.210815
2222.028320	1082.649658
2221.144531	1127.124756
2220.260742	1129.406616
2219.376953	1125.038330
2218.492188	1105.063843
2217.608398	1075.628662
2216.723633	1092.946289
2215.838867	1096.630981
2214.954102	1108.497803
2214.068359	1083.480347
2213.183594	1080.250732
2212.297852	1058.399536
2211.412109	1080.638428
2210.526367	1088.606934
2209.640625	1086.735352
2208.754883	1083.559692
2207.868164	1097.011719
2206.982422	1070.687744
2206.095703	1109.431274
2205.208984	1095.055176
2204.322266	1130.370361
2203.434570	1090.033203
2202.547852	1049.660522
2201.660156	1054.331787
2200.772461	1090.350342
2199.884766	1113.286133
2198.996094	1158.504761
2198.108398	1163.974731
2197.219727	1143.669556
2196.332031	1100.655640
2195.443359	1093.083618
2194.553711	1116.046265
2193.665039	1142.786743
2192.776367	1179.012451
2191.886719	1193.794067
2190.997070	1202.553711
2190.107422	1198.956543
2189.217773	1212.364258
2188.327148	1174.593750
2187.437500	1192.104248
2186.546875	1177.805542
2185.656250	1155.052124
2184.765625	1145.747925
2183.875000	1178.443481
2182.983398	1198.383179
2182.092773	1210.146240
2181.201172	1164.566406
2180.309570	1173.123169
2179.417969	1156.466797
2178.525391	1136.227661
2177.633789	1143.686523
2176.741211	1186.986206
2175.848633	1241.190674
2174.956055	1264.924927
2174.063477	1296.941406
2173.170898	1289.537842
2172.277344	1320.927734
2171.383789	1312.374023
2170.490234	1283.336548
2169.596680	1246.982300
2168.703125	1220.424927
2167.808594	1194.101440
2166.915039	1202.169922
2166.020508	1183.077148
2165.125977	1211.949341
2164.231445	1189.925293
2163.335938	1154.764526
2162.441406	1159.124390
2161.545898	1196.478271
2160.650391	1247.357788
2159.754883	1271.225952
2158.859375	1317.111938
2157.963867	1296.487305
2157.067383	1281.441040
2156.170898	1273.074951
2155.274414	1293.555908
2154.377930	1317.336060
2153.481445	1312.116943
2152.583984	1294.633789
2151.687500	1293.552734
2150.790039	1304.695190
2149.892578	1349.691162
2148.995117	1388.047729
2148.096680	1398.847290
2147.199219	1399.256714
2146.300781	1383.389038
2145.402344	1333.626343
2144.503906	1301.656616
2143.605469	1299.731567
2142.706055	1301.505615
2141.807617	1322.755493
2140.908203	1312.656738
2140.008789	1307.950073
2139.109375	1332.584106
2138.208984	1324.597168
2137.309570	1362.573608
2136.409180	1351.909790
2135.508789	1372.799805
2134.608398	1401.427979
2133.708008	1393.078491
2132.807617	1426.741577
2131.906250	1445.609863
2131.004883	1424.781860
2130.103516	1431.271362
2129.202148	1376.711792
2128.300781	1339.774292
2127.398438	1323.786743
2126.497070	1287.330078
2125.594727	1315.089844
2124.692383	1300.936890
2123.790039	1314.304321
2122.886719	1361.351563
2121.984375	1383.494263
2121.081055	1401.327759
2120.177734	1407.352051
2119.274414	1417.406494
2118.371094	1447.510132
2117.466797	1460.640137
2116.562500	1502.321899
2115.659180	1496.214722
2114.754883	1472.026123
2113.849609	1417.047974
2112.945313	1396.036011
2112.040039	1396.857666
2111.135742	1398.911621
2110.230469	1408.289673
2109.325195	1439.080444
2108.418945	1400.265747
2107.513672	1390.608398
2106.607422	1387.770874
2105.702148	1406.621704
2104.795898	1389.086426
2103.888672	1385.101440
2102.982422	1385.509033
2102.076172	1378.407715
2101.168945	1357.879639
2100.261719	1372.809692
2099.354492	1387.769409
2098.447266	1384.326294
2097.539063	1366.697266
2096.631836	1363.464111
2095.723633	1346.310425
2094.815430	1323.895264
2093.907227	1301.727051
2092.998047	1284.428711
2092.089844	1276.474121
2091.180664	1324.063843
2090.271484	1335.824829
2089.362305	1321.156738
2088.453125	1348.458008
2087.542969	1389.251465
2086.633789	1358.123413
2085.723633	1327.368164
2084.813477	1305.923340
2083.903320	1287.596802
2082.992188	1263.506958
2082.082031	1216.680054
2081.170898	1249.157959
2080.259766	1300.366699
2079.348633	1319.121582
2078.437500	1339.081909
2077.526367	1360.247925
2076.614258	1347.019897
2075.702148	1345.280884
2074.790039	1302.841919
2073.877930	1280.271240
2072.965820	1265.962646
2072.052734	1270.847290
2071.139648	1282.443481
2070.227539	1295.807129
2069.314453	1270.292114
2068.400391	1258.921875
2067.487305	1269.802856
2066.573242	1304.922852
2065.659180	1345.452026
2064.745117	1372.884277
2063.831055	1392.202759
2062.916992	1358.859375
2062.001953	1301.853882
2061.087891	1268.027710
2060.172852	1280.779053
2059.257813	1268.798340
2058.341797	1256.709229
2057.426758	1257.543823
2056.510742	1280.526611
2055.594727	1267.259399
2054.678711	1268.447632
2053.762695	1276.062134
2052.846680	1287.317505
2051.929688	1291.241333
2051.013672	1280.185181
2050.096680	1277.680054
2049.179688	1273.320068
2048.261719	1254.173218
2047.344727	1203.277344
2046.426758	1180.409546
2045.508789	1168.636719
2044.590820	1186.040894
2043.672852	1162.470581
2042.754883	1158.638794
2041.835938	1190.904053
2040.916992	1225.826050
2039.998047	1211.587402
2039.079102	1258.461548
2038.160156	1297.449829
2037.241211	1277.972168
2036.321289	1249.735474
2035.401367	1216.821899
2034.481445	1204.787842
2033.561523	1178.795410
2032.640625	1124.116455
2031.720703	1110.189819
2030.799805	1057.240356
2029.878906	1012.215393
2028.958008	1008.856384
2028.036133	999.217529
2027.115234	1020.882446
2026.193359	1017.510498
2025.271484	1055.689697
2024.349609	1082.965088
2023.427734	1098.335938
2022.505859	1143.226318
2021.583008	1163.099487
2020.660156	1111.603760
2019.737305	1086.563843
2018.814453	1063.171265
2017.891602	1059.005005
2016.967773	1062.742188
2016.043945	1095.188599
2015.120117	1127.697266
2014.196289	1151.375488
2013.272461	1129.113647
2012.347656	1150.495728
2011.423828	1149.937378
2010.499023	1092.408203
2009.574219	1083.894043
2008.649414	1060.267090
2007.723633	1035.748535
2006.798828	1034.383423
2005.873047	1062.033203
2004.947266	1105.204712
2004.021484	1105.420898
2003.094727	1097.862549
2002.168945	1097.342407
2001.242188	1059.515991
2000.315430	1028.735229
1999.388672	1027.100220
1998.461914	1054.326050
1997.534180	1076.331909
1996.607422	1106.448975
1995.679688	1114.305664
1994.751953	1111.640869
1993.824219	1098.565308
1992.895508	1084.856079
1991.967773	1062.560669
1991.039063	1046.133179
1990.110352	1031.766235
1989.181641	1074.722168
1988.252930	1078.843140
1987.323242	1091.346802
1986.393555	1101.776978
1985.463867	1089.934448
1984.534180	1050.787842
1983.604492	1068.876465
1982.674805	1088.423950
1981.744141	1119.053101
1980.813477	1121.715454
1979.882813	1093.432983
1978.952148	1092.002563
1978.021484	1085.921875
1977.089844	1055.349976
1976.158203	1028.569946
1975.226563	1039.157715
1974.294922	1073.189697
1973.363281	1074.775635
1972.430664	1054.142090
1971.499023	1046.148804
1970.566406	1095.095337
1969.633789	1128.712280
1968.700195	1099.710205
1967.767578	1110.540527
1966.833984	1125.784180
1965.900391	1094.353516
1964.966797	1049.260132
1964.033203	1010.481689
1963.099609	1065.324463
1962.165039	1087.086060
1961.231445	1057.505737
1960.296875	1012.642029
1959.361328	990.479370
1958.426758	991.553528
1957.492188	996.284424
1956.556641	1004.875549
1955.621094	1054.471802
1954.685547	1054.002075
1953.750000	1076.489136
1952.813477	1059.881592
1951.876953	1103.087769
1950.941406	1119.540405
1950.004883	1071.257324
1949.067383	1022.552063
1948.130859	1007.889893
1947.193359	1004.538879
1946.256836	1042.882324
1945.319336	1044.934692
1944.380859	1098.500488
1943.443359	1108.864258
1942.505859	1063.212524
1941.567383	1019.055725
1940.628906	1050.668823
1939.690430	1075.394653
1938.750977	1063.456055
1937.812500	1035.807617
1936.873047	1040.575195
1935.933594	1056.918335
1934.994141	1036.334839
1934.054688	1009.149475
1933.115234	1030.605957
1932.174805	1073.544434
1931.234375	1071.891724
1930.293945	1093.385620
1929.353516	1101.656738
1928.413086	1122.102173
1927.471680	1103.457886
1926.530273	1067.442505
1925.588867	1046.740967
1924.647461	1079.987549
1923.706055	1106.160645
1922.763672	1129.366943
1921.822266	1130.036255
1920.879883	1136.343750
1919.937500	1134.727661
1918.994141	1115.622559
1918.051758	1106.510864
1917.108398	1081.442749
1916.165039	1093.052368
1915.221680	1072.982910
1914.278320	1101.100830
1913.333984	1103.728760
1912.390625	1135.685913
1911.446289	1120.598633
1910.501953	1150.721191
1909.557617	1148.170288
1908.612305	1160.577637
1907.667969	1145.033691
1906.722656	1192.057129
1905.777344	1180.049561
1904.832031	1200.101440
1903.885742	1164.271851
1902.940430	1190.076294
1901.994141	1203.553589
1901.047852	1220.377075
1900.101563	1212.552490
1899.155273	1234.471924
1898.208008	1212.129761
1897.261719	1188.470825
1896.314453	1145.762573
1895.367188	1123.212036
1894.418945	1151.144897
1893.471680	1200.643188
1892.523438	1259.618286
1891.575195	1310.467407
1890.626953	1343.460571
1889.678711	1372.297729
1888.730469	1409.467651
1887.781250	1410.430054
1886.832031	1398.542725
1885.882813	1420.402832
1884.933594	1441.625366
1883.984375	1418.012451
1883.034180	1413.343140
1882.083984	1456.275024
1881.133789	1511.181641
1880.183594	1516.651489
1879.233398	1514.982788
1878.282227	1528.754150
1877.332031	1544.235840
1876.380859	1510.234619
1875.429688	1510.057739
1874.477539	1531.422974
1873.526367	1551.709717
1872.574219	1515.328491
1871.622070	1539.350464
1870.669922	1547.811401
1869.717773	1569.893311
1868.764648	1529.482300
1867.812500	1531.982422
1866.859375	1535.323120
1865.906250	1544.646729
1864.953125	1530.327881
1863.999023	1557.145020
1863.044922	1568.622925
1862.091797	1536.388428
1861.137695	1466.678467
1860.182617	1433.251709
1859.228516	1434.221436
1858.273438	1477.745117
1857.319336	1538.542725
1856.364258	1587.081299
1855.408203	1585.130127
1854.453125	1548.251953
1853.497070	1516.696777
1852.541992	1485.760010
1851.585938	1454.931641
1850.629883	1461.328857
1849.672852	1446.601807
1848.716797	1445.248169
1847.759766	1447.544678
1846.802734	1468.660522
1845.845703	1486.694702
1844.887695	1503.372681
1843.930664	1541.573364
1842.972656	1575.001831
1842.014648	1578.074097
1841.056641	1597.728760
1840.098633	1612.882202
1839.139648	1585.734497
1838.181641	1535.666626
1837.222656	1513.254395
1836.263672	1521.000732
1835.303711	1527.714355
1834.344727	1584.222778
1833.384766	1600.592651
1832.424805	1614.409668
1831.464844	1579.240356
1830.504883	1555.398682
1829.544922	1562.993042
1828.583984	1553.758057
1827.623047	1560.505737
1826.662109	1625.857544
1825.701172	1647.531494
1824.740234	1665.991821
1823.778320	1656.134277
1822.816406	1618.317383
1821.854492	1612.941895
1820.892578	1576.050903
1819.929688	1533.476685
1818.967773	1528.016968
1818.004883	1497.939819
1817.041992	1487.414429
1816.079102	1485.580811
1815.115234	1463.224365
1814.152344	1452.592529
1813.188477	1462.062256
1812.224609	1485.825806
1811.260742	1511.152100
1810.296875	1507.400513
1809.332031	1506.014404
1808.367188	1487.395264
1807.402344	1466.328735
1806.437500	1405.404541
1805.472656	1366.976563
1804.506836	1303.138794
1803.541016	1260.173340
1802.575195	1219.220581
1801.609375	1176.982300
1800.643555	1138.892822
1799.676758	1155.649536
1798.710938	1159.283569
1797.744141	1179.172852
1796.777344	1145.298096
1795.809570	1134.249146
1794.842773	1090.269043
1793.875000	1054.933838
1792.907227	1022.232117
1791.939453	1050.192261
1790.971680	1099.375000
1790.002930	1122.885132
1789.034180	1135.446533
1788.066406	1121.837036
1787.096680	1086.690430
1786.127930	1043.416626
1785.159180	1059.548584
1784.189453	1095.928955
1783.219727	1156.913452
1782.250000	1190.903076
1781.280273	1254.362793
1780.309570	1267.862427
1779.338867	1304.584717
1778.369141	1336.515869
1777.397461	1444.881958
1776.426758	1572.039795
1775.456055	1732.557007
1774.484375	1819.277466
1773.512695	1929.582886
1772.541016	2028.572388
1771.569336	2175.875488
1770.596680	2355.983154
1769.625000	2574.601318
1768.652344	2919.918945
1767.679688	3301.071289
1766.706055	3742.327881
1765.733398	4345.961914
1764.759766	5143.561523
1763.786133	6118.152344
1762.812500	7180.295410
1761.838867	8508.604492
1760.864258	10107.651367
1759.890625	11924.579102
1758.916016	14072.411133
1757.941406	16423.650391
1756.966797	19081.078125
1755.991211	21853.841797
1755.015625	24523.255859
1754.041016	27062.171875
1753.064453	29078.476563
1752.088867	30377.880859
1751.113281	30667.960938
1750.136719	29728.535156
1749.160156	27913.474609
1748.183594	25287.601563
1747.207031	22293.164063
1746.229492	19288.419922
1745.252930	16484.677734
1744.275391	14108.101563
1743.297852	12053.792969
1742.319336	10318.855469
1741.341797	9025.123047
1740.363281	7918.359863
1739.384766	7162.542480
1738.406250	6638.900391
1737.427734	6296.438477
1736.449219	6129.866699
1735.469727	6031.533691
1734.490234	6030.979492
1733.510742	6075.269043
1732.531250	6185.594238
1731.550781	6334.600098
1730.571289	6472.948730
1729.590820	6537.944824
1728.610352	6649.404297
1727.628906	6747.361328
1726.648438	6902.104004
1725.666992	7094.693848
1724.685547	7306.701660
1723.704102	7373.358398
1722.722656	7199.652344
1721.740234	6772.154785
1720.758789	6194.315918
1719.776367	5465.100586
1718.793945	4699.272461
1717.810547	3987.898926
1716.828125	3359.549072
1715.844727	2811.858643
1714.861328	2317.834229
1713.877930	2001.542847
1712.894531	1762.800537
1711.910156	1637.517090
1710.926758	1558.237183
1709.942383	1522.868164
1708.957031	1497.201782
1707.972656	1511.523926
1706.988281	1546.494263
1706.002930	1652.783081
1705.017578	1776.175537
1704.032227	1995.949585
1703.045898	2297.876221
1702.060547	2592.831543
1701.074219	2962.922852
1700.087891	3374.930908
1699.101563	3875.909912
1698.115234	4386.013672
1697.127930	5046.797363
1696.140625	5809.740723
1695.153320	6789.786133
1694.166016	7832.495605
1693.178711	9181.685547
1692.190430	10659.266602
1691.203125	12353.968750
1690.214844	14149.353516
1689.225586	16322.928711
1688.237305	18656.775391
1687.248047	21170.789063
1686.259766	23656.828125
1685.270508	26243.185547
1684.280273	28405.664063
1683.291016	29868.328125
1682.300781	30486.998047
1681.311523	30337.757813
1680.321289	29235.171875
1679.330078	27308.992188
1678.339844	24855.458984
1677.348633	22277.140625
1676.357422	19605.919922
1675.366211	17032.740234
1674.375000	14751.262695
1673.383789	12820.414063
1672.391602	11165.497070
1671.399414	9682.811523
1670.407227	8398.441406
1669.415039	7326.953613
1668.421875	6423.201172
1667.429688	5650.014648
1666.436523	5028.805664
1665.443359	4471.721680
1664.450195	4034.090088
1663.456055	3605.554199
1662.461914	3218.764160
1661.467773	2906.525879
1660.473633	2662.539307
1659.479492	2520.749512
1658.484375	2384.239746
1657.490234	2218.142090
1656.495117	2127.868652
1655.500000	2056.509033
1654.503906	1970.707764
1653.508789	1869.246216
1652.512695	1808.995483
1651.516602	1850.047974
1650.520508	1794.444702
1649.524414	1737.861084
1648.527344	1721.768555
1647.530273	1677.052734
1646.533203	1620.760376
1645.536133	1551.535645
1644.539063	1528.015991
1643.541016	1456.012451
1642.542969	1435.703613
1641.544922	1408.054688
1640.546875	1351.388794
1639.547852	1238.165894
1638.549805	1254.976196
1637.550781	1301.588867
1636.551758	1328.250000
1635.552734	1288.537231
1634.552734	1336.567749
1633.553711	1381.045044
1632.553711	1294.729980
1631.553711	1200.546387
1630.552734	1233.533081
1629.552734	1230.508057
1628.551758	1198.150513
1627.550781	1198.752686
1626.549805	1153.455444
1625.548828	1169.648926
1624.546875	1070.267578
1623.544922	1029.766357
1622.543945	1054.781982
1621.541016	1055.048096
1620.539063	1071.684326
1619.536133	1095.797119
1618.534180	1085.463745
1617.531250	1079.123413
1616.527344	1029.786255
1615.524414	1004.061707
1614.520508	959.076233
1613.517578	932.899597
1612.513672	911.629395
1611.508789	836.050354
1610.504883	828.587524
1609.500000	838.469788
1608.495117	820.829163
1607.490234	872.436523
1606.485352	859.380127
1605.480469	856.073608
1604.474609	853.240479
1603.468750	800.040833
1602.462891	816.231079
1601.457031	833.031250
1600.450195	753.433899
1599.443359	723.426208
1598.436523	666.259583
1597.429688	611.354553
1596.422852	557.199829
1595.415039	512.280212
1594.408203	503.649841
1593.400391	551.211060
1592.391602	530.547485
1591.383789	531.961243
1590.375000	565.143982
1589.367188	553.145020
1588.357422	526.270081
1587.348633	522.340637
1586.339844	521.889648
1585.330078	568.379944
1584.320313	612.667908
1583.310547	618.634155
1582.300781	634.908142
1581.290039	564.292175
1580.280273	528.125916
1579.269531	532.009338
1578.258789	495.784973
1577.247070	493.134796
1576.236328	509.060364
1575.224609	470.811432
1574.212891	469.483948
1573.201172	430.483917
1572.188477	439.470795
1571.176758	473.265656
1570.164063	483.813660
1569.151367	512.094604
1568.138672	498.042877
1567.125000	469.101532
1566.112305	478.173096
1565.098633	482.960419
1564.084961	521.002563
1563.070313	525.031250
1562.056641	554.398193
1561.041992	586.177612
1560.027344	606.561340
1559.012695	627.012207
1557.998047	657.905090
1556.982422	704.632324
1555.967773	753.079163
1554.952148	713.390076
1553.935547	711.185181
1552.919922	709.630005
1551.903320	717.476563
1550.887695	686.735840
1549.871094	669.510864
1548.853516	702.666870
1547.836914	737.382751
1546.819336	710.781311
1545.801758	704.350281
1544.784180	734.127808
1543.766602	731.249573
1542.748047	698.258179
1541.730469	673.393494
1540.711914	701.368896
1539.693359	704.027832
1538.673828	657.541870
1537.655273	677.914368
1536.635742	760.940247
1535.616211	787.667847
1534.596680	817.776062
1533.576172	835.467896
1532.556641	875.339355
1531.536133	831.436707
1530.515625	831.658813
1529.494141	856.404785
1528.473633	908.004700
1527.452148	999.953308
1526.430664	1061.713257
1525.409180	1102.754028
1524.387695	1119.888672
1523.365234	1109.848511
1522.343750	1143.903076
1521.321289	1136.921997
1520.297852	1184.411987
1519.275391	1232.771484
1518.251953	1252.203003
1517.228516	1261.652466
1516.205078	1220.152222
1515.181641	1275.058350
1514.158203	1374.089600
1513.133789	1431.879150
1512.109375	1504.089355
1511.084961	1550.698242
1510.060547	1614.248291
1509.035156	1593.850098
1508.009766	1569.062134
1506.984375	1583.261841
1505.958984	1624.689697
1504.933594	1621.268677
1503.907227	1604.632446
1502.880859	1628.535767
1501.854492	1681.150513
1500.828125	1674.661133
1499.801758	1692.685913
1498.774414	1700.274414
1497.747070	1754.125977
1496.719727	1755.663330
1495.692383	1743.099976
1494.664063	1755.249146
1493.635742	1785.902710
1492.607422	1746.352905
1491.579102	1761.134521
1490.550781	1782.865967
1489.521484	1828.607300
1488.492188	1789.054443
1487.462891	1766.354858
1486.433594	1777.997925
1485.403320	1735.039185
1484.374023	1711.252319
1483.343750	1750.932495
1482.313477	1731.517212
1481.282227	1697.196533
1480.251953	1621.414185
1479.220703	1550.876831
1478.189453	1483.526611
1477.158203	1387.488892
1476.125977	1328.358276
1475.094727	1292.208618
1474.062500	1259.915771
1473.030273	1217.973511
1471.998047	1223.080566
1470.964844	1194.207886
1469.931641	1132.945923
1468.898438	1099.714478
1467.865234	1018.013489
1466.832031	971.257874
1465.797852	945.203430
1464.763672	935.700012
1463.729492	918.694458
1462.695313	886.452881
1461.661133	869.480652
1460.625977	874.081543
1459.590820	936.852417
1458.555664	1009.855164
1457.520508	1064.992432
1456.484375	1258.481323
1455.449219	1562.781006
1454.413086	1906.649048
1453.375977	2327.535645
1452.339844	2807.253418
1451.302734	3401.318359
1450.265625	3929.265625
1449.228516	4396.921387
1448.191406	4808.655273
1447.154297	5122.450684
1446.116211	5233.750977
1445.078125	5235.702148
1444.040039	5074.993652
1443.001953	4862.859863
1441.962891	4590.662598
1440.923828	4358.588867
1439.884766	4108.231934
1438.845703	3966.318359
1437.805664	3847.298828
1436.766602	3816.447998
1435.726563	3818.225586
1434.686523	3810.667725
1433.645508	3824.072754
1432.605469	3841.853760
1431.564453	3841.484619
1430.523438	3840.698242
1429.482422	3768.923584
1428.441406	3799.121582
1427.399414	3870.758057
1426.357422	4045.152832
1425.315430	4356.714355
1424.273438	4823.347656
1423.230469	5402.885742
1422.187500	6112.337402
1421.144531	6958.138184
1420.101563	7849.096191
1419.058594	8533.610352
1418.014648	9023.524414
1416.970703	9003.016602
1415.926758	8528.127930
1414.882813	7578.595703
1413.838867	6374.798340
1412.793945	5165.486328
1411.749023	4074.390381
1410.704102	3242.766846
1409.658203	2785.300537
1408.613281	2493.894287
1407.567383	2404.369141
1406.521484	2498.019531
1405.475586	2636.280029
1404.428711	3018.177734
1403.382813	3517.060791
1402.335938	4153.275879
1401.289063	4886.104004
1400.241211	5632.707031
1399.194336	6293.279297
1398.146484	6844.565918
1397.098633	7170.510742
1396.050781	7314.487793
1395.001953	7243.566406
1393.953125	6893.693848
1392.905273	6369.860352
1391.855469	5744.264648
1390.806641	4990.341797
1389.757813	4220.963379
1388.708008	3552.806641
1387.658203	2892.563477
1386.608398	2368.195068
1385.557617	1896.225220
1384.506836	1516.146973
1383.457031	1229.993408
1382.405273	970.332886
1381.354492	789.060547
1380.303711	679.007385
1379.251953	590.933167
1378.200195	492.801697
1377.148438	462.121429
1376.095703	463.318298
1375.042969	492.702728
1373.991211	546.633728
1372.937500	650.430176
1371.884766	702.208435
1370.832031	770.664856
1369.778320	810.098755
1368.724609	858.236755
1367.670898	927.548767
1366.616211	1015.189941
1365.561523	1136.695923
1364.507813	1279.896118
1363.453125	1447.271973
1362.397461	1679.857666
1361.342773	1869.546387
1360.287109	2049.322266
1359.231445	2271.136475
1358.175781	2438.995605
1357.119141	2641.320313
1356.063477	2807.896484
1355.006836	2971.818359
1353.950195	3180.712891
1352.892578	3347.876953
1351.835938	3460.477295
1350.778320	3586.876953
1349.720703	3583.406738
1348.663086	3651.167725
1347.604492	3602.106934
1346.545898	3531.401855
1345.488281	3509.854492
1344.428711	3429.210693
1343.370117	3288.532471
1342.310547	3149.032471
1341.251953	2981.830322
1340.192383	2849.633789
1339.131836	2754.414551
1338.072266	2674.448486
1337.011719	2655.926025
1335.951172	2585.923340
1334.890625	2474.367676
1333.830078	2403.234375
1332.768555	2341.249268
1331.707031	2333.753418
1330.645508	2384.938965
1329.583984	2513.719971
1328.522461	2690.009277
1327.459961	2797.658203
1326.397461	2894.288086
1325.334961	3096.417236
1324.271484	3258.438477
1323.208984	3397.121094
1322.145508	3587.025146
1321.082031	3801.952393
1320.018555	3894.942383
1318.954102	3985.368896
1317.889648	4035.083008
1316.825195	4121.994141
1315.760742	4128.978516
1314.696289	4087.060059
1313.630859	4076.711426
1312.565430	4024.006592
1311.500000	3874.382324
1310.434570	3740.458984
1309.368164	3476.122070
1308.301758	3265.611816
1307.235352	3038.497559
1306.168945	2859.259521
1305.102539	2784.762207
1304.035156	2911.247803
1302.967773	3071.300049
1301.900391	3369.893555
1300.833008	3771.980713
1299.764648	4330.715820
1298.696289	4812.558594
1297.627930	5303.112793
1296.559570	5640.778809
1295.490234	5700.668457
1294.421875	5510.784668
1293.352539	5100.722168
1292.283203	4603.628906
1291.212891	4032.371338
1290.143555	3428.197998
1289.073242	2975.152344
1288.002930	2531.114258
1286.931641	2075.833008
1285.861328	1779.254028
1284.790039	1472.707275
1283.718750	1290.678711
1282.647461	1156.342773
1281.575195	1087.568604
1280.503906	1052.744751
1279.431641	1025.653809
1278.359375	1013.191711
1277.286133	1043.398438
1276.213867	1050.398926
1275.140625	1129.667725
1274.067383	1267.660522
1272.994141	1421.131104
1271.919922	1649.778564
1270.845703	1937.327515
1269.771484	2316.295166
1268.697266	2736.009521
1267.623047	3184.499512
1266.547852	3694.620117
1265.472656	4242.595703
1264.397461	4832.296875
1263.322266	5432.334473
1262.246094	6061.780762
1261.170898	6625.942871
1260.094727	7123.200195
1259.017578	7432.327637
1257.941406	7615.388184
1256.864258	7566.635254
1255.787109	7416.947754
1254.709961	7096.231934
1253.632813	6727.120605
1252.554688	6259.488281
1251.476563	5815.799805
1250.398438	5283.146973
1249.320313	4754.844238
1248.241211	4202.037598
1247.162109	3677.222412
1246.083008	3250.368652
1245.003906	2939.270264
1243.924805	2676.824463
1242.844727	2544.149902
1241.764648	2456.637451
1240.684570	2440.139648
1239.604492	2452.133789
1238.523438	2470.814941
1237.442383	2614.717285
1236.361328	2771.937500
1235.280273	2946.009521
1234.198242	3213.440674
1233.117188	3561.564209
1232.035156	3949.328125
1230.952148	4332.876953
1229.870117	4687.062500
1228.787109	4952.722168
1227.704102	5066.119629
1226.621094	5027.065918
1225.538086	4918.536133
1224.454102	4710.001465
1223.370117	4436.274902
1222.286133	4239.385742
1221.202148	4013.045654
1220.117188	3840.092041
1219.033203	3731.925781
1217.948242	3655.632813
1216.862305	3588.586914
1215.777344	3484.706543
1214.691406	3349.209473
1213.605469	3240.385986
1212.519531	3080.751709
1211.433594	2928.111328
1210.346680	2815.399170
1209.259766	2727.648438
1208.172852	2681.395264
1207.085938	2721.780762
1205.998047	2801.167725
1204.911133	2947.094482
1203.823242	3098.064453
1202.734375	3234.896240
1201.646484	3330.924805
1200.557617	3376.672852
1199.468750	3387.301270
1198.379883	3336.756836
1197.291016	3229.799072
1196.201172	3098.302734
1195.111328	2945.933105
1194.021484	2812.148193
1192.931641	2658.289795
1191.840820	2563.281250
1190.750000	2498.926025
1189.659180	2464.878662
1188.568359	2397.163574
1187.476563	2417.630859
1186.385742	2500.838135
1185.293945	2597.765869
1184.201172	2696.268066
1183.109375	2848.224609
1182.016602	2973.607178
1180.923828	3136.836914
1179.831055	3357.672607
1178.738281	3677.293457
1177.644531	4173.142578
1176.550781	4845.883301
1175.457031	5684.807129
1174.363281	6852.139160
1173.269531	8233.558594
1172.174805	9970.819336
1171.080078	11919.630859
1169.984375	14023.573242
1168.889648	16060.385742
1167.793945	17712.437500
1166.698242	18594.992188
1165.602539	18617.435547
1164.506836	17669.904297
1163.410156	15908.187500
1162.313477	13623.726563
1161.216797	11324.475586
1160.120117	9205.401367
1159.022461	7481.756348
1157.924805	6083.871582
1156.827148	5054.144531
1155.729492	4307.176758
1154.630859	3740.290527
1153.532227	3300.674072
1152.433594	2984.478760
1151.334961	2778.206055
1150.236328	2582.813477
1149.136719	2405.467041
1148.037109	2295.711670
1146.937500	2166.653809
1145.836914	2057.279053
1144.737305	1948.396606
1143.636719	1879.085571
1142.536133	1801.215820
1141.434570	1686.403809
1140.333984	1653.510132
1139.232422	1676.424927
1138.130859	1652.789063
1137.028320	1648.722778
1135.926758	1626.707153
1134.824219	1621.858032
1133.721680	1599.544678
1132.619141	1546.840210
1131.515625	1537.378784
1130.412109	1579.151611
1129.308594	1623.271851
1128.205078	1674.260986
1127.101563	1700.193970
1125.997070	1748.349365
1124.892578	1819.184204
1123.788086	1783.695679
1122.683594	1822.449829
1121.578125	1913.810669
1120.472656	2037.977173
1119.367188	2126.149414
1118.261719	2299.032471
1117.155273	2495.532715
1116.048828	2743.530273
1114.942383	3022.077881
1113.835938	3388.507080
1112.728516	3787.461182
1111.621094	4204.381348
1110.513672	4578.316406
1109.406250	4939.780762
1108.298828	5177.595703
1107.190430	5225.522461
1106.082031	5154.635254
1104.973633	4968.746094
1103.864258	4683.812012
1102.755859	4362.037109
1101.646484	4039.968994
1100.536133	3658.510986
1099.426758	3327.517090
1098.316406	2950.276611
1097.206055	2648.197266
1096.095703	2435.567383
1094.985352	2291.255371
1093.874023	2235.923828
1092.763672	2245.880615
1091.651367	2255.383301
1090.540039	2341.157959
1089.428711	2399.050049
1088.316406	2494.293701
1087.204102	2602.088867
1086.090820	2854.954346
1084.978516	3254.959229
1083.865234	3959.079102
1082.751953	5026.272949
1081.638672	6578.928223
1080.524414	8428.717773
1079.411133	10474.274414
1078.296875	12236.590820
1077.181641	13341.930664
1076.067383	13455.517578
1074.952148	12600.421875
1073.836914	11010.493164
1072.721680	9123.819336
1071.606445	7345.994629
1070.490234	6026.667969
1069.374023	5209.559082
1068.257813	4847.877441
1067.141602	4911.089355
1066.024414	5206.962891
1064.907227	5779.723633
1063.790039	6582.706055
1062.672852	7691.413574
1061.554688	8957.743164
1060.436523	10297.995117
1059.318359	11428.343750
1058.200195	12111.348633
1057.082031	12134.625000
1055.962891	11586.278320
1054.843750	10493.680664
1053.723633	9028.049805
1052.604492	7517.291016
1051.484375	6159.110840
1050.364258	4982.299805
1049.244141	4052.330811
1048.123047	3361.326172
1047.002930	2894.748779
1045.881836	2525.470459
1044.760742	2180.059326
1043.638672	1931.410522
1042.516602	1731.803711
1041.394531	1545.983032
1040.272461	1449.542236
1039.150391	1288.449951
1038.027344	1209.464355
1036.904297	1082.877075
1035.781250	942.404602
1034.658203	878.449280
1033.534180	825.157532
1032.410156	816.664124
1031.286133	800.249329
1030.162109	798.292847
1029.037109	861.377991
1027.912109	827.384338
1026.787109	779.608704
1025.662109	744.399658
1024.536133	651.936523
1023.410156	643.146423
1022.284180	623.536072
1021.158203	641.139648
1020.031250	630.856506
1018.905273	655.835938
1017.778320	704.235352
1016.650391	667.156677
1015.523438	675.911377
1014.395508	709.180237
1013.267578	714.105225
1012.139648	695.607117
1011.010742	648.705566
1009.881836	675.973816
1008.752930	698.684265
1007.624023	683.604431
1006.495117	672.995972
1005.365234	669.996216
1004.235352	649.982605
1003.105469	650.489258
1001.974609	615.000549
1000.843750	603.042053
999.712891	617.127258
998.582031	644.485596
997.451172	599.995056
996.319336	657.781311
995.187500	650.175781
994.055664	666.872803
992.922852	657.879456
991.791016	612.450989
990.658203	644.922180
989.525391	664.611023
988.391602	746.253479
987.257813	820.928711
986.125000	848.822754
984.990234	868.942078
983.856445	869.002502
982.721680	854.959778
981.586914	861.638428
980.452148	840.590088
979.317383	891.173889
978.181641	907.764832
977.045898	963.446594
975.910156	988.719116
974.774414	1080.567383
973.637695	1179.756470
972.500977	1233.509399
971.364258	1306.197998
970.227539	1343.426392
969.089844	1473.000366
967.952148	1573.600098
966.814453	1666.884766
965.676758	1803.171265
964.538086	1929.847656
963.399414	2076.587158
962.260742	2272.468750
961.122070	2458.306396
959.982422	2854.308594
958.842773	3303.354492
957.703125	3863.655762
956.563477	4521.108398
955.422852	5374.173828
954.282227	6442.041992
953.141602	7899.788574
952.000977	10140.735352
950.859375	13825.127930
949.718750	19381.691406
948.577148	26989.904297
947.434570	35968.187500
946.292969	44548.207031
945.150391	50547.734375
944.007813	52130.757813
942.864258	48988.671875
941.721680	42397.609375
940.578125	34713.527344
939.434570	28524.962891
938.291016	25407.513672
937.146484	25234.701172
936.001953	26737.632813
934.857422	27967.140625
933.712891	27686.027344
932.567383	25430.773438
931.421875	21644.609375
930.276367	17268.724609
929.130859	13273.128906
927.984375	10121.147461
926.837891	7911.614258
925.691406	6438.844727
924.544922	5420.298828
923.397461	4649.252930
922.250977	4100.879883
921.103516	3711.739502
919.955078	3455.442627
918.807617	3292.507813
917.659180	3213.973145
916.510742	3248.340332
915.361328	3308.416992
914.212891	3541.066650
913.063477	4023.972900
911.914063	4807.208496
910.764648	6126.811035
909.614258	8020.435547
908.463867	10294.829102
907.313477	12478.020508
906.163086	13936.161133
905.011719	14292.052734
903.860352	13459.602539
902.708984	11588.921875
901.557617	9323.700195
900.405273	7205.335938
899.252930	5519.741699
898.100586	4349.406738
896.948242	3625.821777
895.794922	3184.952881
894.641602	2908.633301
893.488281	2663.654541
892.334961	2543.580322
891.180664	2567.829102
890.026367	2511.447266
888.872070	2484.112061
887.717773	2462.448975
886.562500	2408.969482
885.407227	2324.657959
884.251953	2196.186035
883.096680	2075.652832
881.940430	1989.804932
880.784180	1854.702148
879.627930	1773.782349
878.471680	1668.721802
877.314453	1585.784302
876.157227	1541.664673
875.000000	1447.092041
873.842773	1383.955444
872.684570	1354.557983
871.526367	1389.935059
870.368164	1415.422119
869.208984	1452.318604
868.050781	1494.365845
866.891602	1504.334839
865.732422	1391.130981
864.572266	1324.569580
863.412109	1258.497192
862.252930	1229.998535
861.091797	1176.265015
859.931641	1201.381958
858.770508	1220.811768
857.609375	1254.319702
856.448242	1251.592285
855.286133	1277.654053
854.125000	1281.085571
852.962891	1223.224609
851.799805	1192.016113
850.637695	1177.112061
849.474609	1174.767944
848.311523	1217.681763
847.148438	1263.110352
845.984375	1285.203247
844.821289	1314.155029
843.657227	1337.420288
842.492188	1343.181885
841.328125	1358.846558
840.163086	1413.824463
838.998047	1434.693359
837.833008	1428.076050
836.666992	1439.313965
835.500977	1499.093872
834.334961	1555.230957
833.168945	1577.807373
832.001953	1698.429321
830.834961	1870.827148
829.667969	2043.187378
828.500977	2325.332520
827.333008	2744.107666
826.165039	3342.683105
824.997070	4082.044922
823.829102	4976.494629
822.660156	6060.697754
821.491211	7061.573242
820.322266	7803.149414
819.153320	8118.893555
817.983398	7888.989746
816.813477	7244.493652
815.643555	6353.179199
814.472656	5378.022461
813.302734	4669.484863
812.131836	4154.230469
810.959961	3894.655029
809.789063	3810.638184
808.617188	3789.124756
807.445313	3909.746582
806.273438	4068.052246
805.101563	4262.134766
803.928711	4554.811035
802.755859	4823.248047
801.582031	5172.684082
800.409180	5671.490723
799.235352	6197.087402
798.061523	6924.720703
796.887695	7751.831055
795.712891	8788.463867
794.538086	9994.283203
793.363281	11496.975586
792.188477	13548.968750
791.012695	16443.279297
789.836914	20322.007813
788.661133	25654.800781
787.485352	32173.298828
786.308594	39033.492188
785.131836	45160.613281
783.955078	49065.152344
782.778320	49691.527344
781.600586	46762.910156
780.422852	40993.992188
779.245117	33873.449219
778.066406	26632.156250
776.888672	20318.371094
775.709961	15627.463867
774.530273	12192.569336
773.351563	9804.117188
772.171875	8074.140137
770.992188	6876.486816
769.812500	5967.705566
768.631836	5191.310547
767.451172	4592.520020
766.270508	4137.551270
765.089844	3648.373047
763.908203	3239.217285
762.726563	2871.098389
761.544922	2625.642822
760.363281	2409.467285
759.180664	2265.086426
757.998047	2184.833496
756.815430	2105.548340
755.632813	1991.091797
754.449219	1901.236206
753.265625	1794.161377
752.082031	1731.719482
750.897461	1680.222656
749.713867	1620.739014
748.529297	1567.580933
747.343750	1490.916138
746.159180	1452.486938
744.973633	1430.221802
743.788086	1426.269653
742.602539	1448.134277
741.416016	1539.287476
740.229492	1637.787598
739.042969	1768.616089
737.856445	1876.307983
736.668945	1999.505859
735.481445	2072.171631
734.293945	2215.078613
733.106445	2351.422119
731.917969	2528.345703
730.729492	2817.881592
729.541016	3098.155762
728.352539	3432.438477
727.163086	3769.677490
725.973633	4177.667480
724.784180	4612.244141
723.593750	4971.744141
722.403320	5305.547363
721.212891	5700.570801
720.022461	6063.876465
718.831055	6463.052734
717.640625	6830.853027
716.449219	7239.852051
715.256836	7523.644043
714.065430	7711.188477
712.873047	7873.358398
711.680664	7943.355469
710.487305	7942.141113
709.293945	7886.748535
708.100586	7738.708984
706.907227	7536.673828
705.713867	7293.702637
704.519531	6997.758789
703.325195	6724.022461
702.130859	6514.083496
700.935547	6327.350098
699.740234	6198.758301
698.544922	6088.993164
697.349609	5988.422852
696.153320	5936.693848
694.958008	5955.168945
693.760742	6086.322754
692.564453	6338.536133
691.367188	6683.510742
690.169922	7101.762695
688.972656	7656.690918
687.775391	8162.940430
686.577148	8775.360352
685.378906	9497.021484
684.180664	10216.376953
682.981445	10844.495117
681.782227	11461.654297
680.583008	11811.373047
679.383789	11982.548828
678.183594	11902.266602
676.984375	11569.612305
675.783203	11049.809570
674.583008	10364.753906
673.381836	9551.704102
672.181641	8748.658203
670.979492	7865.898926
669.778320	7130.622070
668.576172	6584.304688
667.374023	6096.758301
666.171875	5750.705566
664.968750	5507.346680
663.766602	5316.479980
662.562500	5242.805176
661.359375	5255.957031
660.156250	5319.848145
658.952148	5513.965820
657.748047	5696.823730
656.542969	5926.841309
655.337891	6030.363770
654.133789	6140.257813
652.927734	6223.715332
651.722656	6177.345215
650.516602	5999.644043
649.310547	5782.188477
648.104492	5515.667480
646.897461	5209.123047
645.690430	4781.930664
644.483398	4452.267090
643.276367	4132.844727
642.068359	3789.893799
640.860352	3458.019775
639.652344	3136.635010
638.444336	2879.364746
637.235352	2600.034180
636.026367	2371.891846
634.817383	2201.668213
633.607422	2026.322632
632.398438	1882.168701
631.188477	1731.632568
629.977539	1590.173706
628.767578	1521.170532
627.556641	1446.530396
626.345703	1452.752197
625.133789	1465.298706
623.922852	1429.762207
622.710938	1387.153687
621.498047	1329.724487
620.286133	1318.817993
619.073242	1323.116821
617.860352	1349.897095
616.647461	1436.079468
615.433594	1529.926025
614.219727	1627.823975
613.005859	1765.053345
611.791992	1922.269287
610.577148	2106.173828
609.362305	2297.528320
608.147461	2489.214600
606.932617	2740.313721
605.716797	2997.524902
604.500977	3315.879639
603.285156	3704.603516
602.068359	4142.883301
600.851563	4586.225586
599.634766	5052.055176
598.417969	5402.033203
597.200195	5757.343750
595.982422	5929.146484
594.764648	6076.827148
593.546875	6184.044922
592.328125	6303.146973
591.109375	6356.143066
589.889648	6357.307129
588.670898	6351.415527
587.451172	6377.486328
586.231445	6458.365723
585.011719	6653.807617
583.791016	6980.837402
582.570313	7443.193359
581.349609	8023.446777
580.127930	8681.197266
578.907227	9535.730469
577.685547	10513.332031
576.462891	11699.168945
575.241211	12933.719727
574.018555	14218.487305
572.795898	15267.320313
571.573242	16074.219727
570.349609	16327.197266
569.125977	16138.603516
567.902344	15422.015625
566.677734	14376.237305
565.453125	13078.796875
564.228516	11735.117188
563.003906	10299.322266
561.779297	9086.698242
560.553711	7924.058105
559.328125	6989.502441
558.101563	6163.322754
556.875977	5518.188965
555.649414	4949.703613
554.421875	4483.725098
553.195313	4026.254883
551.967773	3727.267578
550.740234	3481.701172
549.512695	3317.695557
548.284180	3187.492676
547.055664	3091.605225
545.827148	2951.143311
544.598633	2877.160400
543.369141	2788.931396
542.139648	2773.070801
540.910156	2803.643799
539.679688	2900.646240
538.449219	3026.266602
537.218750	3183.470215
535.988281	3434.150635
534.756836	3758.000244
533.525391	4157.434570
532.293945	4656.547852
531.062500	5317.635742
529.830078	6176.536621
528.597656	7287.881348
527.365234	8642.985352
526.131836	10161.862305
524.898438	11638.207031
523.665039	12953.677734
522.431641	13719.096680
521.197266	13833.591797
519.962891	13316.978516
518.728516	12246.257813
517.493164	10809.925781
516.257813	9335.665039
515.022461	8025.373535
513.787109	7053.071289
512.550781	6261.985352
511.314453	5764.277344
510.078125	5504.604492
508.841797	5363.541016
507.604492	5372.855957
506.367188	5429.987793
505.129883	5478.749023
503.891602	5531.541016
502.653320	5464.337891
501.415039	5321.315430
500.176758	5106.394531
498.937500	4818.976074
497.698242	4474.151367
496.458984	4084.564941
495.218750	3697.131104
493.978516	3363.826172
492.738281	3029.161133
491.498047	2759.153076
490.256836	2549.714844
489.015625	2402.304199
487.774414	2247.498779
486.533203	2159.655518
485.291016	2069.250732
484.048828	1986.095093
482.806641	1904.610107
481.563477	1843.572632
480.320313	1811.331665
479.077148	1787.463989
477.833008	1761.396240
476.589844	1781.862549
475.345703	1794.047607
474.100586	1814.662842
472.856445	1806.580200
471.611328	1769.872925
470.366211	1797.921021
469.120117	1779.119141
467.875000	1800.153198
466.628906	1837.437256
465.381836	1875.035889
464.135742	1979.013184
462.888672	2063.814209
461.641602	2153.034180
460.394531	2277.719727
459.146484	2336.841797
457.898438	2484.818604
456.650391	2635.173584
455.401367	2827.981689
454.152344	3104.635498
452.903320	3436.492676
451.654297	3883.978760
450.404297	4405.409180
449.154297	5044.725098
447.904297	6038.788086
446.654297	7271.424316
445.403320	8605.537109
444.152344	9948.398438
442.900391	11061.219727
441.649414	11699.380859
440.397461	11624.755859
439.145508	10830.099609
437.892578	9548.341797
436.640625	8077.862305
435.386719	6550.660156
434.133789	5309.365234
432.880859	4420.673828
431.626953	3757.272461
430.372070	3290.973389
429.118164	2936.160645
427.863281	2646.983154
426.608398	2452.726318
425.353516	2262.838135
424.097656	2153.627441
422.841797	2075.036133
421.585938	1948.106934
420.330078	1861.237061
419.073242	1842.502563
417.816406	1844.015015
416.559570	1915.270020
415.301758	1981.782959
414.043945	2128.518311
412.786133	2265.260742
411.528320	2395.089111
410.269531	2631.328125
409.010742	2865.367432
407.751953	3216.718994
406.492188	3691.670654
405.232422	4198.531738
403.972656	4732.805176
402.712891	5185.442871
401.452148	5450.153809
400.191406	5521.308105
398.930664	5297.073242
397.668945	5026.749512
396.407227	4740.721680
395.145508	4626.155762
393.882813	4659.960938
392.621094	5010.378418
391.358398	5557.333008
390.094727	6402.801270
388.832031	7476.573730
387.568359	8995.424805
386.304688	10791.041992
385.040039	12720.213867
383.776367	14540.216797
382.511719	15986.249023
381.246094	16640.169922
379.981445	16434.304688
378.715820	15429.141602
377.450195	13911.869141
376.183594	12140.185547
374.916992	10400.776367
373.650391	8902.591797
372.383789	7601.133301
371.116211	6471.033203
369.848633	5566.437988
368.581055	4819.680664
367.313477	4174.241211
366.044922	3732.297119
364.776367	3461.656982
363.507813	3256.682617
362.238281	3000.041992
360.968750	2743.668945
359.699219	2527.770020
358.428711	2349.127930
357.159180	2174.447266
355.887695	2056.244141
354.617188	1998.604492
353.345703	1951.645142
352.074219	1860.463989
350.802734	1809.843262
349.531250	1759.016235
348.258789	1801.538940
346.986328	1796.492554
345.712891	1778.368164
344.440430	1718.167603
343.166992	1630.106323
341.892578	1535.094482
340.619141	1496.039429
339.344727	1465.321899
338.070313	1500.351196
336.794922	1551.174072
335.520508	1583.624756
334.245117	1624.478638
332.968750	1666.086548
331.693359	1656.737549
330.416992	1659.876709
329.140625	1708.534668
327.863281	1800.621704
326.586914	1889.909546
325.309570	1957.501831
324.031250	2094.924072
322.753906	2256.973633
321.475586	2395.508301
320.196289	2590.948486
318.917969	2879.550537
317.638672	3255.972412
316.359375	3636.611084
315.080078	4090.800537
313.799805	4622.496582
312.519531	5181.443848
311.239258	5709.079102
309.958008	6256.181152
308.676758	6674.971680
307.395508	6922.249512
306.114258	6976.477539
304.832031	6832.499023
303.549805	6514.859863
302.267578	6116.073730
300.984375	5685.834473
299.701172	5368.420410
298.417969	5046.595215
297.134766	4803.638184
295.850586	4662.809082
294.566406	4589.185547
293.281250	4626.201172
291.997070	4701.462402
290.711914	4781.269531
289.426758	4874.273926
288.140625	5002.363281
286.854492	5121.708984
285.568359	5186.634766
284.282227	5265.838379
282.995117	5364.441406
281.708008	5402.490234
280.420898	5465.978027
279.132813	5623.976563
277.844727	5842.585449
276.556641	6006.911621
275.267578	6111.561035
273.979492	6129.689941
272.690430	6090.104004
271.400391	5992.960938
270.111328	5902.959961
268.821289	5822.647949
267.530273	5774.984375
266.240234	5775.403320
264.949219	5923.193359
263.658203	6202.094727
262.366211	6598.827148
261.075195	7062.671875
259.783203	7395.381836
258.490234	7479.481934
257.198242	7359.758789
255.905273	6937.737305
254.612305	6418.521484
253.318359	5845.369141
252.024414	5208.114258
250.730469	4574.036621
249.436523	3989.808105
248.141602	3487.627686
246.846680	3060.440430
245.551758	2692.904785
244.255859	2452.074219
242.959961	2257.653809
241.664063	2082.965820
240.368164	1970.719116
239.071289	1924.702148
237.774414	1954.573975
236.476563	1943.243530
235.179688	1957.061768
233.881836	1979.448853
232.583008	2019.276978
231.285156	2114.303467
229.986328	2268.758301
228.687500	2482.773438
227.387695	2808.722412
226.088867	3194.573730
224.789063	3589.355469
223.488281	3940.850586
222.188477	4245.415039
220.887695	4460.131348
219.585938	4689.399414
218.285156	4919.691406
216.983398	5234.253418
215.681641	5597.114746
214.378906	5983.008789
213.077148	6445.468262
211.774414	6894.480469
210.470703	7237.358398
209.167969	7473.215332
207.864258	7374.064453
206.559570	6971.211426
205.255859	6229.522461
203.951172	5371.458984
202.646484	4488.753906
201.340820	3640.106445
200.036133	3006.264648
198.730469	2660.161865
197.423828	2561.493896
196.118164	2674.030273
194.811523	2838.174805
193.503906	2981.268066
192.197266	2941.395264
190.889648	2667.746094
189.582031	2271.322998
188.273438	1919.473267
186.965820	1633.415405
185.657227	1445.053467
184.347656	1417.152588
183.039063	1567.851318
181.729492	1852.202148
180.418945	2237.594971
179.109375	2785.386719
177.798828	3372.618652
176.488281	3877.926025
175.176758	4255.869141
173.865234	4587.999023
172.553711	4675.086426
171.242188	4630.085449
169.929688	4701.268555
168.617188	5031.470703
167.304688	5586.564453
165.991211	6569.919922
164.678711	7821.925781
163.364258	9295.929688
162.050781	10555.325195
160.736328	11547.107422
159.421875	12184.356445
158.106445	12541.491211
156.791992	12807.546875
155.476563	13169.307617
154.160156	13516.044922
152.844727	13785.518555
151.528320	13659.701172
150.211914	13107.769531
148.894531	12232.311523
147.577148	11113.082031
146.259766	10113.159180
144.942383	9383.584961
143.624023	9121.561523
142.305664	9607.753906
140.986328	11049.757813
139.667969	13772.980469
138.348633	17697.632813
137.029297	22043.945313
135.708984	26200.490234
134.388672	29420.244141
133.068359	31453.597656
131.747070	32602.453125
130.426758	33587.664063
129.104492	35195.949219
127.783203	37542.328125
126.460938	40172.613281
125.138672	42114.082031
123.816406	42256.066406
122.493164	39751.875000
121.169922	35232.562500
119.846680	29908.904297
118.522461	25203.431641
117.199219	22134.400391
115.874023	21265.832031
114.549805	21965.042969
113.224609	23384.789063
111.899414	24540.941406
110.574219	25319.804688
109.248047	25476.300781
107.921875	25165.080078
106.595703	25282.642578
105.268555	25198.933594
103.941406	21421.761719
102.614258	15211.989258
101.286133	7687.311523
99.958008	0.000000
